Temperature (K)	Pressure (Pa)	"Density (l, kg/m3)"	"Volume (l, m3/kg)"	"Internal Energy (l, J/kg)"	"Enthalpy (l, J/kg)"	"Entropy (l, J/kg*K)"	"Cv (l, J/kg*K)"	"Cp (l, J/kg*K)"	"Sound Spd. (l, m/s)"	"Joule-Thomson (l, K/Pa)"	"Viscosity (l, Pa*s)"	"Therm. Cond. (l, W/m*K)"	"Surf. Tension (l, N/m)"	"Density (v, kg/m3)"	"Volume (v, m3/kg)"	"Internal Energy (v, J/kg)"	"Enthalpy (v, J/kg)"	"Entropy (v, J/kg*K)"	"Cv (v, J/kg*K)"	"Cp (v, J/kg*K)"	"Sound Spd. (v, m/s)"	"Joule-Thomson (v, K/Pa)"	"Viscosity (v, Pa*s)"	"Therm. Cond. (v, W/m*K)"
160	9.01E-04	907.91	0.0011014	-429440	-429440	-1713.4	1322.8	1804.5	1700.7	-4.94E-07	0.11616	0.22	0.037907	3.12E-08	32034000	583090	611970	4795.4	859.53	1040	186.92	0.0022785	4.38E-06	0.005414
161	1.13E-03	906.83	0.0011027	-427630	-427630	-1702.1	1338.9	1814.1	1694.3	-4.92E-07	0.10703	0.21915	0.037698	3.88E-08	25767000	583950	613010	4761.5	861.65	1042.1	187.47	0.0022167	4.41E-06	0.0054692
162	1.41E-03	905.77	0.001104	-425810	-425810	-1690.9	1354.1	1823.3	1688.3	-4.91E-07	0.098957	0.21831	0.037492	4.81E-08	20787000	584820	614050	4728.1	863.77	1044.2	188.01	0.0021569	4.44E-06	0.0055245
163	1.75E-03	904.72	0.0011053	-423980	-423980	-1679.6	1368.2	1832	1682.6	-4.89E-07	0.091773	0.21749	0.037289	5.95E-08	16816000	585680	615100	4695.1	865.89	1046.4	188.55	0.0020991	4.47E-06	0.0055799
164	2.17E-03	903.67	0.0011066	-422150	-422150	-1668.4	1381.4	1840.2	1677.2	-4.88E-07	0.085346	0.21669	0.037088	7.33E-08	13642000	586550	616150	4662.7	868.01	1048.5	189.09	0.0020432	4.51E-06	0.0056353
165	2.68E-03	902.64	0.0011079	-420300	-420300	-1657.2	1393.7	1847.9	1672	-4.87E-07	0.079568	0.2159	0.036889	9.01E-08	11098000	587420	617200	4630.7	870.14	1050.6	189.62	0.0019891	4.54E-06	0.0056907
166	3.31E-03	901.61	0.0011091	-418450	-418450	-1646	1405.2	1855.1	1667	-4.85E-07	0.074351	0.21513	0.036693	1.10E-07	9052000	588290	618250	4599.2	872.27	1052.7	190.15	0.0019367	4.57E-06	0.0057462
167	4.07E-03	900.59	0.0011104	-416590	-416590	-1634.8	1415.9	1861.9	1662.2	-4.84E-07	0.069621	0.21437	0.036499	1.35E-07	7402900	589160	619300	4568.1	874.4	1054.9	190.69	0.0018861	4.61E-06	0.0058017
168	5.00E-03	899.58	0.0011116	-414730	-414730	-1623.7	1425.9	1868.3	1657.6	-4.83E-07	0.065317	0.21363	0.036307	1.65E-07	6069900	590040	620360	4537.5	876.54	1057	191.22	0.0018371	4.64E-06	0.0058573
169	6.11E-03	898.57	0.0011129	-412860	-412860	-1612.6	1435.2	1874.3	1653.1	-4.82E-07	0.061388	0.2129	0.036118	2.00E-07	4989600	590910	621410	4507.4	878.68	1059.2	191.75	0.0017896	4.67E-06	0.005913
170	7.46E-03	897.57	0.0011141	-410980	-410980	-1601.5	1443.8	1879.8	1648.7	-4.81E-07	0.05779	0.21218	0.035931	2.43E-07	4111800	591790	622480	4477.6	880.83	1061.3	192.27	0.0017436	4.70E-06	0.0059688
171	9.09E-03	896.58	0.0011153	-409100	-409100	-1590.5	1451.8	1885	1644.4	-4.80E-07	0.054485	0.21147	0.035746	2.94E-07	3396800	592680	623540	4448.3	882.98	1063.5	192.8	0.0016991	0.000004736	0.0060247
172	1.10E-02	895.6	0.0011166	-407210	-407210	-1579.5	1459.2	1889.8	1640.2	-4.79E-07	0.051442	0.21077	0.035563	3.56E-07	2812900	593560	624600	4419.4	885.14	1065.6	193.32	0.0016559	4.77E-06	0.0060807
173	1.34E-02	894.62	0.0011178	-405320	-405320	-1568.5	1466.2	1894.3	1636.1	-4.79E-07	0.048633	0.21009	0.035383	4.28E-07	2334900	594450	625670	4391	887.3	1067.8	193.84	0.0016141	4.80E-06	0.0061368
174	1.62E-02	893.64	0.001119	-403420	-403420	-1557.6	1472.6	1898.5	1632	-4.78E-07	0.046034	0.20941	0.035204	5.15E-07	1942600	595330	626740	4362.9	889.47	1070	194.36	0.0015736	4.83E-06	0.006193
175	1.95E-02	892.67	0.0011202	-401520	-401520	-1546.7	1478.5	1902.4	1628	-4.77E-07	0.043625	0.20874	0.035028	6.17E-07	1619900	596220	627810	4335.2	891.65	1072.1	194.88	0.0015343	4.87E-06	0.0062493
176	2.35E-02	891.7	0.0011214	-399620	-399620	-1535.8	1484.1	1906	1624	-4.76E-07	0.041387	0.20808	0.034854	7.39E-07	1353900	597120	628880	4307.9	893.83	1074.3	195.39	0.0014962	4.90E-06	0.0063058
177	2.82E-02	890.74	0.0011227	-397710	-397710	-1525	1489.2	1909.4	1620.1	-4.76E-07	0.039305	0.20744	0.034682	8.82E-07	1134000	598010	629960	4281	896.02	1076.5	195.91	0.0014592	4.93E-06	0.0063624
178	3.37E-02	889.79	0.0011239	-395800	-395800	-1514.2	1494	1912.5	1616.1	-4.75E-07	0.037363	0.2068	0.034511	1.05E-06	951960	598910	631030	4254.5	898.21	1078.7	196.42	0.0014234	0.000004964	0.0064191
179	4.03E-02	888.83	0.0011251	-393880	-393880	-1503.5	1498.5	1915.4	1612.2	-4.75E-07	0.03555	0.20616	0.034343	1.25E-06	800820	599810	632110	4228.3	900.42	1080.9	196.93	0.0013887	5.00E-06	0.006476
180	4.81E-02	887.88	0.0011263	-391970	-391970	-1492.8	1502.6	1918.1	1608.3	-4.74E-07	0.033855	0.20554	0.034177	1.48E-06	675080	600710	633200	4202.5	902.63	1083.1	197.44	0.0013549	0.000005029	0.0065331
181	5.73E-02	886.94	0.0011275	-390050	-390050	-1482.2	1506.5	1920.6	1604.4	-4.74E-07	0.032267	0.20493	0.034013	1.75E-06	570270	601610	634280	4177.1	904.84	1085.3	197.95	0.0013222	5.06E-06	0.0065903
182	6.81E-02	886	0.0011287	-388130	-388130	-1471.6	1510.1	1923	1600.5	-4.74E-07	0.030778	0.20432	0.03385	2.07E-06	482700	602520	635370	4152	907.07	1087.5	198.45	0.0012904	5.09E-06	0.0066477
183	8.07E-02	885.06	0.0011299	-386200	-386200	-1461.1	1513.5	1925.2	1596.6	-4.73E-07	0.029379	0.20372	0.03369	2.44E-06	409390	603430	636460	4127.2	909.3	1089.8	198.96	0.0012596	5.13E-06	0.0067052
184	9.55E-02	884.12	0.0011311	-384270	-384270	-1450.6	1516.8	1927.3	1592.7	-4.73E-07	0.028065	0.20313	0.033531	2.87E-06	347900	604340	637550	4102.8	911.54	1092	199.46	0.0012296	5.16E-06	0.0067629
185	1.13E-01	883.19	0.0011323	-382350	-382350	-1440.1	1519.8	1929.2	1588.8	-4.72E-07	0.026827	0.20254	0.033374	0.000003376	296210	605250	638640	4078.7	913.79	1094.3	199.96	0.0012005	5.19E-06	0.0068209
186	1.33E-01	882.26	0.0011335	-380420	-380420	-1429.7	1522.7	1931.1	1584.9	-4.72E-07	0.025661	0.20196	0.033219	3.96E-06	252680	606170	639740	4055	916.05	1096.5	200.46	0.0011722	5.22E-06	0.006879
187	1.56E-01	881.33	0.0011347	-378480	-378480	-1419.4	1525.4	1932.9	1581	-4.72E-07	0.024561	0.20139	0.033066	4.63E-06	215950	607080	640830	4031.5	918.32	1098.8	200.95	0.0011448	5.26E-06	0.0069373
188	1.84E-01	880.4	0.0011358	-376550	-376550	-1409	1528	1934.6	1577	-4.71E-07	0.023522	0.20082	0.032914	5.41E-06	184900	608000	641930	4008.4	920.59	1101.1	201.45	0.0011181	5.29E-06	0.0069958
189	2.15E-01	879.48	0.001137	-374620	-374620	-1398.8	1530.5	1936.3	1573.1	-4.71E-07	0.02254	0.20026	0.032764	6.31E-06	158590	608920	643030	3985.6	922.88	1103.4	201.94	0.0010922	5.32E-06	0.0070545
190	2.52E-01	878.56	0.0011382	-372680	-372680	-1388.6	1533	1937.9	1569.1	-4.71E-07	0.021611	0.19971	0.032616	7.34E-06	136270	609850	644140	3963.1	925.17	1105.7	202.44	0.0010669	5.35E-06	0.0071134
191	2.94E-01	877.64	0.0011394	-370740	-370740	-1378.4	1535.3	1939.5	1565.1	-4.70E-07	0.020732	0.19916	0.03247	8.53E-06	117300	610770	645250	3940.9	927.47	1108	202.93	0.0010424	5.39E-06	0.0071725
192	3.43E-01	876.73	0.0011406	-368800	-368800	-1368.3	1537.6	1941	1561.1	-4.70E-07	0.019899	0.19862	0.032325	9.89E-06	101140	611700	646360	3919	929.79	1110.3	203.42	0.0010186	0.000005418	0.0072319
193	3.99E-01	875.81	0.0011418	-366860	-366860	-1358.2	1539.9	1942.5	1557.1	-4.70E-07	0.019108	0.19809	0.032181	0.000011448	87355	612630	647470	3897.4	932.11	1112.6	203.9	0.00099541	5.45E-06	0.0072914
194	4.63E-01	874.9	0.001143	-364910	-364910	-1348.1	1542.1	1944.1	1553	-4.69E-07	0.018358	0.19756	0.03204	0.000013232	75574	613570	648580	3876.1	934.44	1114.9	204.39	0.00097286	5.48E-06	0.0073512
195	5.37E-01	873.99	0.0011442	-362970	-362970	-1338.1	1544.4	1945.6	1549	-4.69E-07	0.017645	0.19704	0.031899	0.00001527	65488	614500	649700	3855	936.79	1117.3	204.88	0.00095091	0.000005515	0.0074113
196	6.22E-01	873.09	0.0011454	-361020	-361020	-1328.2	1546.6	1947.1	1544.9	-4.69E-07	0.016968	0.19652	0.031761	0.000017593	56840	615440	650810	3834.3	939.14	1119.6	205.36	0.00092956	5.55E-06	0.0074715
197	7.20E-01	872.18	0.0011466	-359080	-359080	-1318.3	1548.8	1948.7	1540.8	-4.68E-07	0.016323	0.19601	0.031624	0.000020238	49412	616380	651940	3813.8	941.5	1122	205.84	0.00090878	5.58E-06	0.007532
198	8.31E-01	871.28	0.0011477	-357130	-357130	-1308.4	1551	1950.3	1536.7	-4.68E-07	0.01571	0.1955	0.031488	0.000023244	43021	617320	653060	3793.6	943.88	1124.4	206.32	0.00088855	5.61E-06	0.0075928
199	9.57E-01	870.37	0.0011489	-355170	-355170	-1298.6	1553.2	1951.9	1532.5	-4.67E-07	0.015126	0.195	0.031354	0.000026656	37515	618270	654180	3773.6	946.26	1126.8	206.8	0.00086886	5.64E-06	0.0076538
200	1.10E+00	869.47	0.0011501	-353220	-353220	-1288.8	1555.5	1953.6	1528.4	-4.67E-07	0.014569	0.1945	0.031221	0.000030523	32763	619220	655310	3753.9	948.66	1129.1	207.28	0.00084968	5.68E-06	0.0077151
201	1.27E+00	868.58	0.0011513	-351270	-351270	-1279	1557.8	1955.3	1524.2	-4.66E-07	0.014038	0.19401	0.031089	0.000034898	28655	620170	656440	3734.5	951.06	1131.6	207.75	0.000831	5.71E-06	0.0077766
202	1.45E+00	867.68	0.0011525	-349310	-349310	-1269.3	1560.1	1957.1	1520	-4.66E-07	0.013532	0.19352	0.030959	0.000039842	25099	621120	657570	3715.3	953.48	1134	208.23	0.00081282	5.74E-06	0.0078383
203	1.66E+00	866.78	0.0011537	-347350	-347350	-1259.6	1562.5	1958.9	1515.8	-4.66E-07	0.013049	0.19304	0.030831	0.000045422	22016	622070	658710	3696.3	955.91	1136.4	208.7	0.0007951	0.000005773	0.0079003
204	1.90E+00	865.89	0.0011549	-345390	-345390	-1250	1564.9	1960.7	1511.6	-4.65E-07	0.012587	0.19257	0.030703	0.000051709	19339	623030	659850	3677.6	958.35	1138.8	209.17	0.00077784	5.81E-06	0.0079626
205	2.17E+00	865	0.0011561	-343430	-343430	-1240.4	1567.4	1962.7	1507.3	-4.65E-07	0.012145	0.1921	0.030577	0.000058784	17011	623990	660990	3659.2	960.8	1141.3	209.64	0.00076101	5.84E-06	0.0080252
206	2.48E+00	864.11	0.0011573	-341470	-341470	-1230.9	1569.9	1964.7	1503.1	-4.64E-07	0.011724	0.19163	0.030452	0.000066736	14984	624950	662130	3641	963.26	1143.8	210.11	0.00074462	5.87E-06	0.008088
207	2.83E+00	863.22	0.0011585	-339500	-339500	-1221.3	1572.5	1966.8	1498.8	-4.63E-07	0.01132	0.19117	0.030329	0.00007566	13217	625910	663270	3623	965.73	1146.2	210.57	0.00072864	5.90E-06	0.0081511
208	3.22E+00	862.33	0.0011597	-337530	-337530	-1211.9	1575.2	1968.9	1494.6	-4.63E-07	0.010934	0.19071	0.030207	0.000085664	11674	626880	664420	3605.2	968.22	1148.7	211.04	0.00071307	5.93E-06	0.0082145
209	3.65E+00	861.44	0.0011608	-335560	-335560	-1202.4	1577.9	1971.1	1490.3	-4.62E-07	0.010564	0.19026	0.030086	0.000096862	10324	627850	665570	3587.7	970.71	1151.2	211.5	0.00069789	5.97E-06	0.0082782
210	4.15E+00	860.56	0.001162	-333590	-333590	-1193	1580.7	1973.4	1486	-4.62E-07	0.01021	0.18981	0.029966	0.00010938	9142.2	628820	666720	3570.4	973.22	1153.7	211.96	0.00068308	0.000005998	0.0083421
211	4.70E+00	859.67	0.0011632	-331620	-331620	-1183.6	1583.6	1975.8	1481.7	-4.61E-07	0.0098704	0.18937	0.029847	0.00012336	8106.1	629800	667880	3553.3	975.74	1156.2	212.43	0.00066864	6.03E-06	0.0084063
212	5.32E+00	858.79	0.0011644	-329640	-329640	-1174.3	1586.5	1978.2	1477.4	-4.60E-07	0.009545	0.18893	0.029729	0.00013896	7196.4	630770	669030	3536.5	978.27	1158.8	212.89	0.00065456	6.06E-06	0.0084708
213	6.01E+00	857.91	0.0011656	-327660	-327660	-1165	1589.5	1980.7	1473.1	-4.60E-07	0.0092329	0.18849	0.029613	0.00015633	6396.8	631750	670190	3519.8	980.81	1161.3	213.34	0.00064082	6.09E-06	0.0085356
214	6.78E+00	857.03	0.0011668	-325680	-325680	-1155.7	1592.6	1983.3	1468.7	-4.59E-07	0.0089335	0.18806	0.029498	0.00017566	5693	632730	671360	3503.4	983.37	1163.9	213.8	0.00062743	6.13E-06	0.0086007
215	7.65E+00	856.15	0.001168	-323690	-323690	-1146.4	1595.8	1986	1464.4	-4.58E-07	0.0086461	0.18764	0.029383	0.00019713	5072.7	633720	672520	3487.1	985.94	1166.5	214.26	0.00061435	6.16E-06	0.0086661
216	8.61E+00	855.27	0.0011692	-321710	-321710	-1137.2	1599	1988.7	1460.1	-4.58E-07	0.0083702	0.18722	0.02927	0.00022098	4525.3	634700	673690	3471.1	988.51	1169	214.71	0.0006016	6.19E-06	0.0087318
217	9.69E+00	854.39	0.0011704	-319720	-319720	-1128	1602.3	1991.6	1455.8	-4.57E-07	0.0081052	0.1868	0.029158	0.00024742	4041.8	635690	674860	3455.3	991.11	1171.6	215.16	0.00058915	6.22E-06	0.0087978
218	1.09E+01	853.52	0.0011716	-317720	-317720	-1118.8	1605.7	1994.5	1451.4	-4.56E-07	0.0078505	0.18639	0.029047	0.0002767	3614.1	636690	676030	3439.7	993.71	1174.2	215.61	0.000577	6.25E-06	0.0088641
219	1.22E+01	852.64	0.0011728	-315730	-315730	-1109.7	1609.1	1997.5	1447.1	-4.55E-07	0.0076058	0.18598	0.028937	0.00030909	3235.3	637680	677200	3424.2	996.32	1176.9	216.06	0.00056514	6.29E-06	0.0089307
220	1.37E+01	851.77	0.001174	-313730	-313730	-1100.6	1612.7	2000.6	1442.8	-4.55E-07	0.0073704	0.18557	0.028828	0.00034489	2899.5	638680	678380	3409	998.95	1179.5	216.51	0.00055357	6.32E-06	0.0089975
221	1.53E+01	850.9	0.0011752	-311730	-311730	-1091.5	1616.3	2003.7	1438.5	-4.54E-07	0.0071441	0.18517	0.02872	0.00038441	2601.4	639680	679560	3393.9	1001.6	1182.1	216.96	0.00054227	6.35E-06	0.0090647
222	1.71E+01	850.02	0.0011764	-309720	-309720	-1082.5	1619.9	2006.9	1434.1	-4.53E-07	0.0069263	0.18478	0.028612	0.000428	2336.5	640680	680740	3379.1	1004.2	1184.8	217.41	0.00053124	6.38E-06	0.0091322
223	1.92E+01	849.15	0.0011776	-307710	-307710	-1073.4	1623.7	2010.3	1429.8	-4.52E-07	0.0067167	0.18438	0.028506	0.00047601	2100.8	641680	681930	3364.4	1006.9	1187.5	217.85	0.00052047	6.41E-06	0.0092
224	2.14E+01	848.28	0.0011789	-305700	-305700	-1064.4	1627.5	2013.6	1425.5	-4.51E-07	0.0065149	0.18399	0.028401	0.00052885	1890.9	642690	683120	3349.9	1009.6	1190.2	218.29	0.00050995	6.45E-06	0.0092682
225	2.38E+01	847.41	0.0011801	-303690	-303690	-1055.5	1631.4	2017.1	1421.2	-4.50E-07	0.0063206	0.18361	0.028296	0.00058694	1703.7	643700	684310	3335.6	1012.3	1192.9	218.74	0.00049968	6.48E-06	0.0093366
226	2.65E+01	846.55	0.0011813	-301670	-301670	-1046.5	1635.3	2020.6	1416.9	-4.49E-07	0.0061335	0.18323	0.028192	0.00065074	1536.7	644710	685500	3321.5	1015	1195.6	219.18	0.00048964	0.00000651	0.0094053
227	2.95E+01	845.68	0.0011825	-299640	-299640	-1037.6	1639.3	2024.2	1412.6	-4.48E-07	0.0059531	0.18285	0.028089	0.00072075	1387.4	645730	686690	3307.5	1017.7	1198.3	219.62	0.00047984	6.54E-06	0.0094744
228	3.28E+01	844.81	0.0011837	-297620	-297620	-1028.7	1643.4	2027.9	1408.3	-4.47E-07	0.0057793	0.18247	0.027987	0.00079748	1253.9	646740	687890	3293.7	1020.4	1201	220.06	0.00047027	6.57E-06	0.0095437
229	3.64E+01	843.95	0.0011849	-295590	-295590	-1019.8	1647.5	2031.7	1404	-4.46E-07	0.0056117	0.1821	0.027886	0.00088151	1134.4	647770	689090	3280.1	1023.2	1203.8	220.49	0.00046092	6.61E-06	0.0096134
230	4.04E+01	843.09	0.0011861	-293560	-293550	-1010.9	1651.8	2035.5	1399.7	-4.45E-07	0.0054501	0.18174	0.027786	0.00097344	1027.3	648790	690290	3266.7	1025.9	1206.5	220.93	0.00045178	6.64E-06	0.0096834
231	4.48E+01	842.22	0.0011873	-291520	-291520	-1002.1	1656	2039.4	1395.4	-4.44E-07	0.0052942	0.18137	0.027686	0.0010739	931.16	649810	691500	3253.4	1028.7	1209.3	221.36	0.00044286	6.67E-06	0.0097538
232	4.96E+01	841.36	0.0011886	-289480	-289480	-993.27	1660.3	2043.3	1391.2	-4.43E-07	0.0051438	0.18101	0.027587	0.0011837	844.83	650840	692710	3240.3	1031.4	1212.1	221.8	0.00043413	6.70E-06	0.0098244
233	5.48E+01	840.5	0.0011898	-287430	-287430	-984.47	1664.7	2047.3	1386.9	-4.42E-07	0.0049987	0.18066	0.027489	0.0013034	767.23	651870	693920	3227.3	1034.2	1214.9	222.23	0.00042561	0.000006733	0.0098954
234	6.05E+01	839.64	0.001191	-285380	-285380	-975.7	1669.2	2051.4	1382.7	-4.41E-07	0.0048586	0.18031	0.027392	0.0014339	697.4	652910	695130	3214.5	1037	1217.7	222.66	0.00041728	6.76E-06	0.0099667
235	6.68E+01	838.78	0.0011922	-283330	-283330	-966.94	1673.7	2055.6	1378.5	-4.40E-07	0.0047233	0.17996	0.027295	0.001576	634.5	653940	696350	3201.9	1039.9	1220.6	223.09	0.00040914	6.80E-06	0.010038
236	7.37E+01	837.92	0.0011934	-281270	-281270	-958.2	1678.2	2059.8	1374.3	-4.39E-07	0.0045926	0.17961	0.027199	0.0017307	577.8	654980	697570	3189.4	1042.7	1223.4	223.52	0.00040118	6.83E-06	0.01011
237	8.12E+01	837.06	0.0011947	-279210	-279210	-949.48	1682.8	2064.1	1370.1	-4.38E-07	0.0044664	0.17927	0.027103	0.0018989	526.63	656020	698790	3177.1	1045.5	1226.3	223.94	0.0003934	0.00000686	0.010182
238	8.94E+01	836.2	0.0011959	-277140	-277140	-940.78	1687.5	2068.4	1365.9	-4.37E-07	0.0043445	0.17893	0.027008	0.0020815	480.41	657070	700010	3164.9	1048.4	1229.2	224.37	0.0003858	6.89E-06	0.010255
239	9.83E+01	835.34	0.0011971	-275070	-275070	-932.1	1692.2	2072.8	1361.7	-4.36E-07	0.0042266	0.1786	0.026914	0.0022798	438.63	658110	701240	3152.9	1051.3	1232	224.79	0.00037837	6.92E-06	0.010328
240	1.08E+02	834.49	0.0011983	-273000	-273000	-923.44	1697	2077.3	1357.5	-4.35E-07	0.0041127	0.17826	0.026821	0.0024948	400.83	659160	702470	3141	1054.1	1234.9	225.22	0.0003711	6.96E-06	0.010401
241	1.19E+02	833.63	0.0011996	-270920	-270920	-914.79	1701.8	2081.8	1353.4	-4.34E-07	0.0040025	0.17793	0.026728	0.0027278	366.59	660210	703700	3129.3	1057	1237.9	225.64	0.000364	6.99E-06	0.010475
242	1.30E+02	832.78	0.0012008	-268830	-268830	-906.16	1706.6	2086.4	1349.2	-4.33E-07	0.003896	0.17761	0.026635	0.0029801	335.56	661270	704930	3117.7	1059.9	1240.8	226.06	0.00035705	7.02E-06	0.010549
243	1.43E+02	831.92	0.001202	-266740	-266740	-897.55	1711.5	2091	1345.1	-4.31E-07	0.003793	0.17729	0.026544	0.003253	307.41	662330	706170	3106.2	1062.9	1243.7	226.48	0.00035026	7.05E-06	0.010623
244	1.56E+02	831.07	0.0012033	-264650	-264650	-888.95	1716.5	2095.7	1341	-4.30E-07	0.0036933	0.17697	0.026452	0.0035481	281.84	663380	707410	3094.9	1065.8	1246.7	226.9	0.00034362	7.08E-06	0.010697
245	1.71E+02	830.22	0.0012045	-262550	-262550	-880.37	1721.5	2100.5	1336.9	-4.29E-07	0.0035969	0.17665	0.026362	0.0038668	258.61	664450	708650	3083.7	1068.7	1249.7	227.31	0.00033712	7.11E-06	0.010772
246	1.87E+02	829.36	0.0012057	-260450	-260450	-871.8	1726.5	2105.3	1332.8	-4.28E-07	0.0035035	0.17634	0.026271	0.0042108	237.49	665510	709900	3072.7	1071.7	1252.7	227.73	0.00033077	7.15E-06	0.010847
247	2.04E+02	828.51	0.001207	-258340	-258340	-863.25	1731.6	2110.2	1328.8	-4.27E-07	0.0034131	0.17603	0.026182	0.0045818	218.26	666580	711140	3061.8	1074.7	1255.7	228.14	0.00032456	7.18E-06	0.010923
248	2.23E+02	827.66	0.0012082	-256230	-256230	-854.72	1736.8	2115.1	1324.7	-4.25E-07	0.0033256	0.17572	0.026092	0.0049817	200.74	667650	712390	3051	1077.7	1258.7	228.56	0.00031848	7.21E-06	0.010999
249	2.43E+02	826.81	0.0012095	-254110	-254110	-846.19	1741.9	2120.1	1320.7	-4.24E-07	0.0032409	0.17541	0.026004	0.0054123	184.76	668720	713640	3040.4	1080.7	1261.8	228.97	0.00031254	0.00000724	0.011075
250	2.65E+02	825.96	0.0012107	-251990	-251990	-837.69	1747.2	2125.1	1316.7	-4.23E-07	0.0031588	0.17511	0.025915	0.0058757	170.19	669800	714900	3029.9	1083.7	1264.8	229.38	0.00030672	7.27E-06	0.011151
251	2.89E+02	825.11	0.001212	-249860	-249860	-829.19	1752.4	2130.2	1312.7	-4.22E-07	0.0030793	0.17481	0.025827	0.0063741	156.88	670880	716160	3019.5	1086.7	1267.9	229.79	0.00030103	7.30E-06	0.011228
252	3.14E+02	824.26	0.0012132	-247730	-247730	-820.71	1757.7	2135.4	1308.7	-4.21E-07	0.0030023	0.17452	0.02574	0.0069097	144.72	671960	717420	3009.2	1089.8	1271	230.2	0.00029547	7.33E-06	0.011306
253	3.42E+02	823.41	0.0012145	-245590	-245590	-812.25	1763.1	2140.6	1304.7	-4.19E-07	0.0029276	0.17423	0.025653	0.0074849	133.6	673040	718680	2999.1	1092.8	1274.1	230.6	0.00029002	7.37E-06	0.011383
254	3.71E+02	822.56	0.0012157	-243450	-243450	-803.79	1768.4	2145.8	1300.8	-0.000000418	0.0028552	0.17394	0.025566	0.0081022	123.42	674130	719940	2989.1	1095.9	1277.2	231.01	0.0002847	7.40E-06	0.011461
255	4.03E+02	821.71	0.001217	-241300	-241300	-795.35	1773.9	2151.2	1296.8	-4.17E-07	0.0027851	0.17365	0.02548	0.0087641	114.1	675220	721210	2979.2	1099	1280.4	231.41	0.00027949	7.43E-06	0.011539
256	4.37E+02	820.86	0.0012182	-239150	-239140	-786.92	1779.3	2156.5	1292.9	-4.15E-07	0.002717	0.17336	0.025394	0.0094735	105.56	676310	722480	2969.4	1102.1	1283.5	231.82	0.00027439	7.46E-06	0.011618
257	4.74E+02	820.01	0.0012195	-236990	-236990	-778.5	1784.8	2161.9	1289	-4.14E-07	0.0026511	0.17308	0.025309	0.010233	97.72	677400	723750	2959.8	1105.2	1286.7	232.22	0.0002694	7.49E-06	0.011696
258	5.14E+02	819.16	0.0012208	-234820	-234820	-770.09	1790.4	2167.4	1285.1	-4.13E-07	0.0025871	0.1728	0.025223	0.011046	90.526	678500	725030	2950.2	1108.3	1289.9	232.62	0.00026451	7.52E-06	0.011775
259	5.57E+02	818.32	0.001222	-232650	-232650	-761.7	1796	2172.9	1281.3	-4.12E-07	0.002525	0.17253	0.025138	0.011916	83.919	679600	726300	2940.8	1111.5	1293.1	233.02	0.00025973	0.000007555	0.011855
260	6.02E+02	817.47	0.0012233	-230480	-230470	-753.32	1801.6	2178.5	1277.4	-4.10E-07	0.0024648	0.17225	0.025054	0.012846	77.845	680700	727580	2931.5	1114.6	1296.3	233.42	0.00025505	7.59E-06	0.011935
261	6.51E+02	816.62	0.0012246	-228290	-228290	-744.94	1807.2	2184.2	1273.6	-4.09E-07	0.0024063	0.17198	0.02497	0.013839	72.259	681800	728870	2922.3	1117.8	1299.6	233.81	0.00025048	7.62E-06	0.012015
262	7.04E+02	815.77	0.0012258	-226110	-226110	-736.58	1812.9	2189.9	1269.7	-4.08E-07	0.0023496	0.17171	0.024886	0.014899	67.117	682910	730150	2913.3	1121	1302.8	234.21	0.00024599	7.65E-06	0.012095
263	7.60E+02	814.93	0.0012271	-223910	-223910	-728.23	1818.7	2195.6	1265.9	-4.06E-07	0.0022945	0.17145	0.024802	0.016031	62.38	684020	731440	2904.3	1124.2	1306.1	234.6	0.00024161	7.68E-06	0.012176
264	8.20E+02	814.08	0.0012284	-221720	-221710	-719.88	1824.4	2201.4	1262.1	-4.05E-07	0.0022411	0.17118	0.024719	0.017237	58.015	685130	732730	2895.4	1127.4	1309.4	234.99	0.00023731	7.71E-06	0.012257
265	8.85E+02	813.23	0.0012297	-219510	-219510	-711.55	1830.2	2207.3	1258.4	-4.03E-07	0.0021892	0.17092	0.024635	0.018522	53.989	686240	734020	2886.7	1130.6	1312.7	235.39	0.00023311	7.74E-06	0.012339
266	9.54E+02	812.39	0.0012309	-217300	-217300	-703.22	1836.1	2213.2	1254.6	-4.02E-07	0.0021388	0.17066	0.024552	0.019891	50.274	687360	735310	2878	1133.9	1316.1	235.78	0.00022899	7.77E-06	0.012421
267	1.03E+03	811.54	0.0012322	-215090	-215080	-694.91	1842	2219.2	1250.9	-4.01E-07	0.0020898	0.17041	0.02447	0.021348	46.842	688480	736610	2869.5	1137.1	1319.4	236.16	0.00022496	7.81E-06	0.012503
268	1.11E+03	810.69	0.0012335	-212860	-212860	-686.6	1847.9	2225.2	1247.1	-3.99E-07	0.0020422	0.17015	0.024387	0.022898	43.672	689600	737900	2861	1140.4	1322.8	236.55	0.00022102	7.84E-06	0.012585
269	1.19E+03	809.85	0.0012348	-210630	-210630	-678.3	1853.9	2231.3	1243.4	-3.98E-07	0.001996	0.1699	0.024305	0.024546	40.74	690720	739200	2852.7	1143.7	1326.2	236.94	0.00021715	7.87E-06	0.012668
270	1.28E+03	809	0.0012361	-208400	-208400	-670.01	1859.9	2237.4	1239.7	-3.96E-07	0.0019511	0.16965	0.024223	0.026297	38.028	691850	740510	2844.5	1147	1329.7	237.32	0.00021337	7.90E-06	0.012751
271	1.38E+03	808.16	0.0012374	-206160	-206160	-661.73	1865.9	2243.6	1236	-3.95E-07	0.0019074	0.1694	0.024141	0.028156	35.517	692980	741810	2836.3	1150.3	1333.1	237.7	0.00020967	0.000007931	0.012835
272	1.48E+03	807.31	0.0012387	-203910	-203910	-653.45	1872	2249.9	1232.4	-3.94E-07	0.001865	0.16916	0.024059	0.030129	33.19	694110	743120	2828.3	1153.7	1336.6	238.09	0.00020604	7.96E-06	0.012918
273	1.58E+03	806.46	0.00124	-201660	-201660	-645.19	1878.1	2256.2	1228.7	-3.92E-07	0.0018237	0.16892	0.023978	0.032223	31.034	695240	744430	2820.3	1157	1340	238.47	0.00020248	7.99E-06	0.013003
274	1.70E+03	805.62	0.0012413	-199400	-199400	-636.92	1884.2	2262.6	1225.1	-3.91E-07	0.0017836	0.16868	0.023896	0.034442	29.034	696380	745740	2812.5	1160.4	1343.6	238.85	0.000199	8.02E-06	0.013087
275	1.82E+03	804.77	0.0012426	-197140	-197130	-628.67	1890.4	2269	1221.4	-3.89E-07	0.0017446	0.16844	0.023815	0.036794	27.178	697510	747050	2804.7	1163.8	1347.1	239.22	0.00019559	8.06E-06	0.013172
276	1.95E+03	803.92	0.0012439	-194860	-194860	-620.42	1896.6	2275.5	1217.8	-3.88E-07	0.0017067	0.1682	0.023734	0.039285	25.455	698650	748360	2797.1	1167.2	1350.6	239.6	0.00019225	0.000008087	0.013257
277	2.09E+03	803.07	0.0012452	-192580	-192580	-612.18	1902.9	2282	1214.2	-3.86E-07	0.0016698	0.16797	0.023653	0.041921	23.854	699790	749680	2789.5	1170.6	1354.2	239.97	0.00018898	8.12E-06	0.013342
278	2.24E+03	802.23	0.0012465	-190300	-190300	-603.95	1909.2	2288.6	1210.6	-3.85E-07	0.0016339	0.16774	0.023572	0.044711	22.366	700940	751000	2782	1174.1	1357.8	240.35	0.00018577	8.15E-06	0.013428
279	2.39E+03	801.38	0.0012478	-188010	-188000	-595.72	1915.5	2295.3	1207.1	-3.83E-07	0.001599	0.1675	0.023491	0.04766	20.982	702080	752320	2774.6	1177.5	1361.4	240.72	0.00018263	8.18E-06	0.013514
280	2.56E+03	800.53	0.0012492	-185710	-185710	-587.49	1921.8	2302	1203.5	-3.82E-07	0.001565	0.16728	0.02341	0.050778	19.693	703230	753640	2767.3	1181	1365.1	241.09	0.00017956	8.21E-06	0.013601
281	2.74E+03	799.68	0.0012505	-183400	-183400	-579.27	1928.2	2308.8	1200	-3.80E-07	0.0015319	0.16705	0.023329	0.054072	18.494	704380	754970	2760.1	1184.5	1368.7	241.45	0.00017654	8.24E-06	0.013687
282	2.92E+03	798.83	0.0012518	-181090	-181090	-571.06	1934.7	2315.7	1196.4	-3.79E-07	0.0014998	0.16683	0.023249	0.05755	17.376	705540	756290	2753	1188	1372.4	241.82	0.00017359	8.27E-06	0.013775
283	3.12E+03	797.99	0.0012532	-178770	-178770	-562.85	1941.1	2322.6	1192.9	-3.77E-07	0.0014684	0.1666	0.023168	0.06122	16.335	706690	757620	2745.9	1191.5	1376.1	242.19	0.00017069	8.30E-06	0.013862
284	3.33E+03	797.14	0.0012545	-176450	-176440	-554.65	1947.6	2329.5	1189.4	-3.75E-07	0.0014379	0.16638	0.023087	0.065092	15.363	707850	758950	2739	1195	1379.9	242.55	0.00016785	8.34E-06	0.01395
285	3.55E+03	796.29	0.0012558	-174110	-174110	-546.45	1954.2	2336.6	1185.9	-3.74E-07	0.0014082	0.16616	0.023007	0.069174	14.456	709010	760280	2732.1	1198.6	1383.7	242.91	0.00016507	8.37E-06	0.014038
286	3.78E+03	795.44	0.0012572	-171770	-171770	-538.25	1960.8	2343.7	1182.4	-3.72E-07	0.0013793	0.16595	0.022927	0.073477	13.61	710170	761610	2725.3	1202.2	1387.5	243.27	0.00016235	8.40E-06	0.014126
287	4.03E+03	794.58	0.0012585	-169430	-169420	-530.06	1967.4	2350.8	1179	-3.71E-07	0.0013511	0.16573	0.022846	0.078009	12.819	711330	762950	2718.6	1205.8	1391.3	243.63	0.00015968	8.43E-06	0.014215
288	4.29E+03	793.73	0.0012599	-167070	-167070	-521.87	1974	2358	1175.5	-3.69E-07	0.0013237	0.16552	0.022766	0.082781	12.08	712490	764280	2712	1209.4	1395.1	243.99	0.00015706	8.46E-06	0.014304
289	4.56E+03	792.88	0.0012612	-164710	-164700	-513.68	1980.7	2365.3	1172.1	-3.67E-07	0.0012969	0.16531	0.022685	0.087804	11.389	713660	765620	2705.4	1213	1399	244.34	0.00015449	8.49E-06	0.014394
290	4.85E+03	792.03	0.0012626	-162340	-162340	-505.5	1987.4	2372.6	1168.6	-3.66E-07	0.0012709	0.1651	0.022605	0.093087	10.743	714830	766960	2699	1216.7	1402.9	244.69	0.00015197	8.52E-06	0.014483
291	5.16E+03	791.17	0.0012639	-159970	-159960	-497.32	1994.1	2380	1165.2	-3.64E-07	0.0012455	0.16489	0.022524	0.098643	10.138	716000	768300	2692.6	1220.3	1406.8	245.05	0.00014951	8.55E-06	0.014573
292	5.48E+03	790.32	0.0012653	-157580	-157570	-489.14	2000.9	2387.5	1161.8	-3.63E-07	0.0012208	0.16468	0.022444	0.10448	9.571	717170	769640	2686.3	1224	1410.8	245.39	0.00014709	8.58E-06	0.014664
293	5.82E+03	789.46	0.0012667	-155190	-155180	-480.97	2007.7	2395	1158.4	-3.61E-07	0.0011966	0.16448	0.022363	0.11062	9.0401	718340	770980	2680	1227.7	1414.8	245.74	0.00014471	0.000008614	0.014755
294	6.18E+03	788.61	0.0012681	-152790	-152780	-472.8	2014.5	2402.5	1155	-3.59E-07	0.0011731	0.16428	0.022283	0.11706	8.5425	719510	772330	2673.8	1231.5	1418.8	246.09	0.00014239	8.64E-06	0.014846
295	6.56E+03	787.75	0.0012694	-150390	-150380	-464.63	2021.4	2410.2	1151.6	-3.58E-07	0.0011502	0.16407	0.022202	0.12382	8.0759	720690	773670	2667.7	1235.2	1422.8	246.43	0.00014011	8.68E-06	0.014937
296	6.96E+03	786.89	0.0012708	-147970	-147960	-456.46	2028.3	2417.9	1148.2	-3.56E-07	0.0011279	0.16387	0.022122	0.13092	7.6382	721870	775020	2661.7	1239	1426.9	246.77	0.00013787	8.71E-06	0.015029
297	7.38E+03	786.04	0.0012722	-145550	-145540	-448.29	2035.2	2425.6	1144.8	-3.54E-07	0.0011061	0.16368	0.022041	0.13837	7.2272	723050	776370	2655.8	1242.8	1431	247.12	0.00013568	8.74E-06	0.015121
298	7.82E+03	785.18	0.0012736	-143120	-143110	-440.13	2042.2	2433.4	1141.5	-3.52E-07	0.0010848	0.16348	0.02196	0.14617	6.8413	724230	777710	2649.9	1246.6	1435.2	247.45	0.00013352	8.77E-06	0.015214
299	8.28E+03	784.32	0.001275	-140680	-140670	-431.96	2049.1	2441.3	1138.1	-3.51E-07	0.0010641	0.16328	0.021879	0.15435	6.4788	725410	779060	2644.1	1250.4	1439.3	247.79	0.00013141	8.80E-06	0.015307
300	8.77E+03	783.45	0.0012764	-138240	-138230	-423.8	2056.2	2449.2	1134.8	-3.49E-07	0.0010439	0.16309	0.021798	0.16292	6.138	726590	780410	2638.3	1254.2	1443.6	248.12	0.00012934	8.83E-06	0.0154
301	9.28E+03	782.59	0.0012778	-135790	-135770	-415.63	2063.2	2457.2	1131.5	-3.47E-07	0.0010242	0.16289	0.021717	0.17189	5.8176	727780	781760	2632.7	1258.1	1447.8	248.46	0.00012731	8.86E-06	0.015493
302	9.82E+03	781.73	0.0012792	-133320	-133310	-407.47	2070.2	2465.3	1128.1	-3.46E-07	0.0010049	0.1627	0.021636	0.18129	5.5162	728970	783110	2627.1	1262	1452.1	248.79	0.00012532	8.89E-06	0.015587
303	1.04E+04	780.86	0.0012806	-130860	-130840	-399.31	2077.3	2473.4	1124.8	-3.44E-07	0.00098615	0.16251	0.021555	0.19112	5.2325	730150	784470	2621.5	1265.9	1456.4	249.12	0.00012336	8.92E-06	0.015681
304	1.10E+04	780	0.0012821	-128380	-128360	-391.15	2084.4	2481.6	1121.5	-3.42E-07	0.00096782	0.16232	0.021473	0.2014	4.9653	731340	785820	2616	1269.8	1460.7	249.44	0.00012144	0.000008952	0.015776
305	1.16E+04	779.13	0.0012835	-125890	-125880	-382.98	2091.6	2489.8	1118.2	-3.40E-07	0.00094993	0.16214	0.021392	0.21215	4.7137	732530	787170	2610.6	1273.8	1465.1	249.77	0.00011956	8.98E-06	0.015871
306	1.22E+04	778.26	0.0012849	-123400	-123380	-374.82	2098.7	2498.1	1114.9	-3.38E-07	0.00093246	0.16195	0.02131	0.22338	4.4766	733720	788530	2605.3	1277.8	1469.5	250.09	0.00011771	9.01E-06	0.015966
307	1.29E+04	777.39	0.0012864	-120900	-120880	-366.66	2105.9	2506.4	1111.6	-3.37E-07	0.00091541	0.16176	0.021229	0.23513	4.253	734910	789880	2600	1281.8	1473.9	250.41	0.0001159	9.04E-06	0.016062
308	1.36E+04	776.52	0.0012878	-118390	-118370	-358.5	2113.1	2514.8	1108.3	-3.35E-07	0.00089877	0.16158	0.021147	0.24739	4.0422	736110	791240	2594.8	1285.8	1478.4	250.72	0.00011412	9.07E-06	0.016158
309	1.44E+04	775.65	0.0012892	-115870	-115850	-350.33	2120.3	2523.3	1105	-3.33E-07	0.00088251	0.1614	0.021065	0.26019	3.8433	737300	792590	2589.6	1289.8	1482.9	251.04	0.00011238	9.10E-06	0.016254
310	1.52E+04	774.77	0.0012907	-113340	-113320	-342.17	2127.6	2531.8	1101.8	-3.31E-07	0.00086663	0.16122	0.020983	0.27356	3.6555	738500	793950	2584.5	1293.9	1487.5	251.35	0.00011066	9.14E-06	0.01635
311	1.60E+04	773.9	0.0012922	-110810	-110790	-334	2134.8	2540.4	1098.5	-3.29E-07	0.00085112	0.16103	0.0209	0.2875	3.4782	739690	795300	2579.5	1298	1492.1	251.66	0.00010898	9.17E-06	0.016448
312	1.68E+04	773.02	0.0012936	-108260	-108240	-325.83	2142.1	2549	1095.2	-3.27E-07	0.00083598	0.16085	0.020818	0.30205	3.3107	740890	796660	2574.5	1302.1	1496.7	251.97	0.00010733	9.20E-06	0.016545
313	1.77E+04	772.14	0.0012951	-105710	-105690	-317.66	2149.4	2557.7	1092	-3.26E-07	0.00082118	0.16068	0.020735	0.31722	3.1524	742080	798020	2569.6	1306.2	1501.4	252.28	0.00010571	9.23E-06	0.016643
314	1.87E+04	771.26	0.0012966	-103150	-103120	-309.49	2156.7	2566.4	1088.7	-3.24E-07	0.00080672	0.1605	0.020653	0.33302	3.0028	743280	799370	2564.7	1310.4	1506.1	252.58	0.00010412	9.26E-06	0.016741
315	1.97E+04	770.38	0.0012981	-100580	-100550	-301.32	2164	2575.2	1085.5	-3.22E-07	0.00079259	0.16032	0.02057	0.34949	2.8613	744480	800730	2559.9	1314.6	1510.9	252.88	0.00010255	9.29E-06	0.016839
316	2.07E+04	769.49	0.0012996	-97998	-97971	-293.14	2171.4	2584.1	1082.2	-3.20E-07	0.00077878	0.16015	0.020486	0.36665	2.7274	745680	802080	2555.1	1318.8	1515.7	253.18	0.00010102	9.32E-06	0.016938
317	2.17E+04	768.61	0.0013011	-95410	-95381	-284.97	2178.7	2593	1079	-3.18E-07	0.00076528	0.15997	0.020403	0.38452	2.6007	746880	803440	2550.4	1323	1520.5	253.48	0.000099514	9.35E-06	0.017037
318	2.29E+04	767.72	0.0013026	-92813	-92783	-276.79	2186.1	2601.9	1075.7	-0.000000316	0.00075209	0.1598	0.02032	0.40312	2.4807	748080	804790	2545.8	1327.3	1525.4	253.77	0.000098035	9.38E-06	0.017137
319	2.40E+04	766.83	0.0013041	-90207	-90176	-268.6	2193.5	2610.9	1072.5	-3.14E-07	0.00073919	0.15963	0.020236	0.42247	2.367	749280	806150	2541.2	1331.6	1530.3	254.06	0.000096583	9.41E-06	0.017237
320	2.52E+04	765.93	0.0013056	-87592	-87559	-260.42	2200.9	2620	1069.3	-3.12E-07	0.00072658	0.15945	0.020152	0.4426	2.2594	750480	807500	2536.6	1335.9	1535.3	254.35	0.000095156	9.44E-06	0.017337
321	2.65E+04	765.04	0.0013071	-84968	-84934	-252.23	2208.3	2629.1	1066	-3.10E-07	0.00071425	0.15928	0.020068	0.46354	2.1573	751680	808860	2532.2	1340.2	1540.3	254.63	0.000093756	9.47E-06	0.017438
322	2.78E+04	764.14	0.0013087	-82335	-82299	-244.04	2215.7	2638.3	1062.8	-3.08E-07	0.00070219	0.15911	0.019984	0.48531	2.0605	752880	810210	2527.7	1344.6	1545.3	254.92	0.00009238	9.50E-06	0.017539
323	2.92E+04	763.25	0.0013102	-79693	-79655	-235.85	2223.1	2647.5	1059.6	-3.06E-07	0.0006904	0.15894	0.019899	0.50794	1.9687	754080	811560	2523.3	1348.9	1550.4	255.2	0.000091029	9.53E-06	0.01764
324	3.06E+04	762.35	0.0013117	-77042	-77002	-227.65	2230.5	2656.7	1056.3	-3.04E-07	0.00067886	0.15877	0.019814	0.53145	1.8816	755290	812920	2519	1353.4	1555.6	255.47	0.000089701	9.56E-06	0.017742
325	3.21E+04	761.44	0.0013133	-74381	-74339	-219.46	2238	2666.1	1053.1	-3.02E-07	0.00066758	0.1586	0.019729	0.55588	1.799	756490	814270	2514.7	1357.8	1560.8	255.75	0.000088398	9.59E-06	0.017845
326	3.37E+04	760.54	0.0013149	-71711	-71667	-211.25	2245.4	2675.4	1049.9	-3.00E-07	0.00065654	0.15844	0.019644	0.58124	1.7205	757690	815620	2510.5	1362.3	1566	256.02	0.000087117	9.62E-06	0.017947
327	3.53E+04	759.63	0.0013164	-69032	-68986	-203.05	2252.9	2684.8	1046.6	-2.98E-07	0.00064573	0.15827	0.019559	0.60757	1.6459	758890	816970	2506.3	1366.8	1571.3	256.29	0.000085859	9.65E-06	0.01805
328	3.70E+04	758.72	0.001318	-66343	-66295	-194.84	2260.3	2694.3	1043.4	-2.96E-07	0.00063516	0.1581	0.019473	0.6349	1.5751	760090	818320	2502.1	1371.3	1576.6	256.56	0.000084623	9.68E-06	0.018154
329	3.87E+04	757.81	0.0013196	-63645	-63594	-186.62	2267.8	2703.8	1040.2	-2.94E-07	0.00062481	0.15794	0.019387	0.66325	1.5077	761290	819660	2498	1375.8	1582	256.82	0.000083408	9.71E-06	0.018258
330	4.05E+04	756.89	0.0013212	-60938	-60884	-178.41	2275.2	2713.4	1036.9	-2.92E-07	0.00061469	0.15777	0.019301	0.69267	1.4437	762500	821010	2494	1380.4	1587.5	257.08	0.000082215	9.74E-06	0.018362
331	4.24E+04	755.97	0.0013228	-58221	-58164	-170.19	2282.7	2723	1033.7	-2.90E-07	0.00060478	0.15761	0.019215	0.72317	1.3828	763700	822350	2490	1385	1593	257.34	0.000081043	9.77E-06	0.018467
332	4.44E+04	755.05	0.0013244	-55494	-55435	-161.96	2290.1	2732.6	1030.5	-2.88E-07	0.00059507	0.15745	0.019128	0.75479	1.3249	764900	823700	2486	1389.6	1598.5	257.59	0.000079891	9.80E-06	0.018572
333	4.64E+04	754.13	0.001326	-52758	-52696	-153.73	2297.6	2742.3	1027.2	-2.86E-07	0.00058557	0.15728	0.019041	0.78756	1.2697	766100	825040	2482.1	1394.3	1604.1	257.84	0.000078759	9.83E-06	0.018677
334	4.85E+04	753.2	0.0013277	-50012	-49947	-145.5	2305.1	2752.1	1024	-2.84E-07	0.00057626	0.15712	0.018954	0.82152	1.2173	767300	826380	2478.2	1399	1609.7	258.09	0.000077646	9.86E-06	0.018783
335	5.07E+04	752.28	0.0013293	-47256	-47188	-137.26	2312.5	2761.9	1020.8	-2.81E-07	0.00056715	0.15696	0.018867	0.85669	1.1673	768490	827720	2474.4	1403.7	1615.4	258.33	0.000076553	9.89E-06	0.01889
336	5.30E+04	751.34	0.0013309	-44490	-44420	-129.01	2320	2771.7	1017.5	-2.79E-07	0.00055823	0.1568	0.018779	0.89312	1.1197	769690	829060	2470.6	1408.5	1621.2	258.58	0.000075478	9.92E-06	0.018996
337	5.54E+04	750.41	0.0013326	-41715	-41641	-120.77	2327.4	2781.6	1014.3	-2.77E-07	0.00054948	0.15664	0.018692	0.93084	1.0743	770890	830390	2466.9	1413.2	1627	258.82	0.000074422	9.95E-06	0.019104
338	5.78E+04	749.47	0.0013343	-38930	-38853	-112.51	2334.9	2791.6	1011	-2.75E-07	0.00054092	0.15648	0.018603	0.96989	1.031	772090	831730	2463.2	1418.1	1632.9	259.05	0.000073384	9.98E-06	0.019211
339	6.04E+04	748.53	0.001336	-36135	-36054	-104.26	2342.3	2801.6	1007.8	-2.73E-07	0.00053253	0.15632	0.018515	1.0103	0.98981	773280	833060	2459.5	1422.9	1638.8	259.28	0.000072364	0.000010011	0.01932
340	6.30E+04	747.59	0.0013376	-33330	-33246	-95.994	2349.8	2811.6	1004.5	-2.70E-07	0.00052431	0.15616	0.018426	1.0521	0.95049	774480	834390	2455.9	1427.8	1644.8	259.51	0.000071361	0.00001004	0.019428
341	6.58E+04	746.64	0.0013393	-30515	-30427	-87.727	2357.2	2821.7	1001.2	-2.68E-07	0.00051625	0.156	0.018338	1.0953	0.91297	775670	835720	2452.3	1432.7	1650.8	259.74	0.000070375	0.00001007	0.019537
342	6.86E+04	745.69	0.001341	-27690	-27598	-79.454	2364.6	2831.8	997.98	-2.66E-07	0.00050836	0.15584	0.018248	1.14	0.87716	776870	837040	2448.7	1437.6	1657	259.96	0.000069406	0.0000101	0.019647
343	7.15E+04	744.74	0.0013428	-24855	-24759	-71.176	2372.1	2842	994.71	-2.64E-07	0.00050062	0.15568	0.018159	1.1863	0.84298	778060	838370	2445.2	1442.6	1663.1	260.18	0.000068453	0.00001013	0.019757
344	7.46E+04	743.78	0.0013445	-22010	-21910	-62.893	2379.5	2852.2	991.43	-2.61E-07	0.00049303	0.15552	0.018069	1.2341	0.81034	779250	839690	2441.8	1447.6	1669.3	260.39	0.000067516	0.00001016	0.019867
345	7.77E+04	742.82	0.0013462	-19155	-19050	-54.604	2386.9	2862.5	988.14	-2.59E-07	0.00048559	0.15536	0.017979	1.2834	0.77916	780440	841010	2438.3	1452.6	1675.6	260.6	0.000066595	0.000010189	0.019978
346	8.10E+04	741.85	0.001348	-16289	-16180	-46.31	2394.3	2872.8	984.86	-2.57E-07	0.0004783	0.15521	0.017889	1.3344	0.74938	781630	842330	2434.9	1457.7	1682	260.81	0.00006569	0.000010219	0.02009
347	8.44E+04	740.88	0.0013497	-13413	-13299	-38.01	2401.7	2883.2	981.56	-2.55E-07	0.00047115	0.15505	0.017798	1.3871	0.72092	782820	843640	2431.6	1462.8	1688.4	261.01	0.000064799	0.000010249	0.020202
348	8.79E+04	739.91	0.0013515	-10527	-10408	-29.704	2409.1	2893.6	978.26	-2.52E-07	0.00046414	0.15489	0.017708	1.4415	0.6937	784000	844950	2428.2	1467.9	1694.9	261.21	0.000063924	0.000010279	0.020314
349	9.15E+04	738.94	0.0013533	-7630.6	-7506.8	-21.392	2416.5	2904.1	974.95	-2.50E-07	0.00045726	0.15473	0.017617	1.4977	0.66769	785190	846260	2424.9	1473	1701.4	261.41	0.000063063	0.000010308	0.020427
350	9.52E+04	737.96	0.0013551	-4723.7	-4594.7	-13.075	2423.9	2914.6	971.63	-2.47E-07	0.00045051	0.15458	0.017525	1.5557	0.6428	786370	847570	2421.7	1478.2	1708	261.6	0.000062217	0.000010338	0.020541
351	9.91E+04	736.97	0.0013569	-1806.4	-1672	-4.751	2431.2	2925.2	968.31	-2.45E-07	0.00044389	0.15442	0.017433	1.6155	0.61899	787550	848870	2418.4	1483.5	1714.7	261.79	0.000061384	0.000010368	0.020655
352	1.03E+05	735.99	0.0013587	1121.4	1261.4	3.579	2438.6	2935.9	964.98	-2.43E-07	0.0004374	0.15426	0.017342	1.6773	0.5962	788730	850170	2415.3	1488.7	1721.5	261.98	0.000060565	0.000010397	0.020769
353	1.07E+05	735	0.0013606	4059.7	4205.5	11.915	2445.9	2946.5	961.64	-2.40E-07	0.00043103	0.15411	0.017249	1.741	0.57439	789910	851470	2412.1	1494	1728.3	262.16	0.00005976	0.000010427	0.020884
354	1.11E+05	734	0.0013624	7008.6	7160.4	20.258	2453.3	2957.3	958.29	-2.38E-07	0.00042478	0.15395	0.017157	1.8067	0.55351	791080	852760	2409	1499.4	1735.2	262.34	0.000058969	0.000010456	0.021
355	1.16E+05	733	0.0013643	9968.1	10126	28.607	2460.6	2968.1	954.94	-2.35E-07	0.00041864	0.1538	0.017064	1.8744	0.53351	792260	854050	2405.9	1504.7	1742.2	262.51	0.00005819	0.000010486	0.021116
356	1.20E+05	732	0.0013661	12938	13103	36.962	2467.9	2978.9	951.57	-2.33E-07	0.00041262	0.15364	0.016971	1.9442	0.51435	793430	855340	2402.8	1510.1	1749.2	262.68	0.000057424	0.000010516	0.021233
357	1.25E+05	730.99	0.001368	15919	16090	45.325	2475.2	2989.8	948.2	-2.30E-07	0.00040671	0.15348	0.016878	2.0162	0.49598	794600	856620	2399.8	1515.6	1756.3	262.85	0.000056671	0.000010545	0.02135
358	1.30E+05	729.97	0.0013699	18911	19089	53.694	2482.5	3000.7	944.81	-2.28E-07	0.0004009	0.15333	0.016784	2.0904	0.47839	795770	857910	2396.8	1521	1763.5	263.01	0.00005593	0.000010575	0.021468
359	1.35E+05	728.96	0.0013718	21913	22099	62.07	2489.8	3011.7	941.42	-2.25E-07	0.0003952	0.15317	0.01669	2.1668	0.46152	796930	859180	2393.8	1526.5	1770.7	263.17	0.000055201	0.000010604	0.021586
360	1.40E+05	727.93	0.0013738	24927	25119	70.453	2497.1	3022.8	938.02	-2.23E-07	0.00038961	0.15302	0.016596	2.2455	0.44534	798100	860460	2390.8	1532.1	1778.1	263.32	0.000054484	0.000010634	0.021706
361	1.45E+05	726.91	0.0013757	27951	28151	78.843	2504.3	3033.9	934.6	-2.20E-07	0.00038411	0.15286	0.016501	2.3266	0.42982	799260	861730	2387.9	1537.6	1785.5	263.47	0.000053778	0.000010663	0.021825
362	1.51E+05	725.88	0.0013776	30987	31194	87.24	2511.6	3045.1	931.18	-2.17E-07	0.00037871	0.15271	0.016406	2.4101	0.41493	800420	862990	2385	1543.3	1793	263.62	0.000053085	0.000010693	0.021945
363	1.56E+05	724.84	0.0013796	34033	34249	95.645	2518.8	3056.3	927.74	-2.15E-07	0.00037341	0.15255	0.016311	2.496	0.40064	801580	864250	2382.2	1548.9	1800.6	263.76	0.000052402	0.000010722	0.022066
364	1.62E+05	723.8	0.0013816	37090	37315	104.06	2526	3067.6	924.3	-2.12E-07	0.0003682	0.15239	0.016216	2.5845	0.38693	802730	865510	2379.3	1554.6	1808.2	263.89	0.000051731	0.000010752	0.022188
365	1.68E+05	722.75	0.0013836	40159	40392	112.48	2533.2	3079	920.84	-2.09E-07	0.00036309	0.15224	0.01612	2.6755	0.37376	803880	866770	2376.5	1560.3	1816	264.03	0.00005107	0.000010782	0.02231
366	1.74E+05	721.7	0.0013856	43239	43480	120.9	2540.4	3090.4	917.37	-2.07E-07	0.00035806	0.15208	0.016024	2.7692	0.36111	805030	868020	2373.7	1566.1	1823.8	264.15	0.00005042	0.000010811	0.022433
367	1.81E+05	720.64	0.0013877	46330	46580	129.34	2547.6	3101.9	913.88	-2.04E-07	0.00035312	0.15193	0.015928	2.8656	0.34897	806180	869260	2371	1571.9	1831.7	264.28	0.000049781	0.00001084	0.022557
368	1.87E+05	719.58	0.0013897	49432	49692	137.78	2554.7	3113.4	910.39	-2.01E-07	0.00034826	0.15177	0.015832	2.9647	0.3373	807320	870500	2368.2	1577.7	1839.7	264.4	0.000049152	0.00001087	0.022681
369	1.94E+05	718.51	0.0013918	52546	52816	146.23	2561.9	3125	906.88	-1.98E-07	0.00034349	0.15161	0.015735	3.0667	0.32608	808460	871740	2365.5	1583.6	1847.8	264.51	0.000048533	0.000010899	0.022806
370	2.01E+05	717.44	0.0013939	55671	55951	154.69	2569	3136.7	903.36	-1.95E-07	0.0003388	0.15146	0.015638	3.1715	0.3153	809600	872970	2362.9	1589.5	1855.9	264.62	0.000047924	0.000010929	0.022931
371	2.08E+05	716.36	0.001396	58807	59098	163.16	2576.1	3148.4	899.83	-1.92E-07	0.00033418	0.1513	0.01554	3.2793	0.30494	810730	874200	2360.2	1595.4	1864.2	264.73	0.000047325	0.000010958	0.023058
372	2.15E+05	715.27	0.0013981	61955	62256	171.63	2583.2	3160.2	896.28	-1.89E-07	0.00032965	0.15114	0.015442	3.3901	0.29497	811870	875420	2357.6	1601.4	1872.5	264.83	0.000046735	0.000010988	0.023185
373	2.23E+05	714.18	0.0014002	65115	65427	180.11	2590.3	3172.1	892.72	-1.87E-07	0.00032519	0.15099	0.015345	3.504	0.28539	813000	876640	2355	1607.5	1881	264.92	0.000046155	0.000011017	0.023313
374	2.31E+05	713.08	0.0014024	68286	68610	188.61	2597.4	3184	889.14	-1.84E-07	0.00032081	0.15083	0.015246	3.621	0.27617	814120	877860	2352.4	1613.5	1889.5	265.01	0.000045584	0.000011047	0.023441
375	2.39E+05	711.98	0.0014045	71469	71804	197.11	2604.4	3196	885.56	-1.81E-07	0.00031649	0.15067	0.015148	3.7412	0.26729	815240	879070	2349.8	1619.6	1898.2	265.1	0.000045023	0.000011076	0.02357
376	2.47E+05	710.87	0.0014067	74663	75011	205.62	2611.4	3208	881.95	-1.78E-07	0.00031225	0.15052	0.015049	3.8647	0.25875	816360	880270	2347.3	1625.8	1906.9	265.18	0.00004447	0.000011106	0.023701
377	2.55E+05	709.76	0.0014089	77870	78230	214.13	2618.4	3220.2	878.33	-1.74E-07	0.00030808	0.15036	0.01495	3.9916	0.25053	817480	881470	2344.7	1632	1915.7	265.26	0.000043926	0.000011135	0.023831
378	2.64E+05	708.64	0.0014112	81088	81461	222.66	2625.4	3232.3	874.7	-1.71E-07	0.00030397	0.1502	0.01485	4.1218	0.24261	818590	882660	2342.2	1638.2	1924.6	265.33	0.000043391	0.000011165	0.023963
379	2.73E+05	707.51	0.0014134	84318	84704	231.2	2632.3	3244.6	871.05	-1.68E-07	0.00029993	0.15004	0.014751	4.2556	0.23499	819700	883850	2339.8	1644.5	1933.7	265.4	0.000042864	0.000011194	0.024096
380	2.82E+05	706.37	0.0014157	87560	87960	239.74	2639.3	3256.9	867.39	-1.65E-07	0.00029596	0.14988	0.014651	4.3929	0.22764	820800	885030	2337.3	1650.8	1942.8	265.46	0.000042346	0.000011224	0.024229
381	2.92E+05	705.23	0.001418	90815	91228	248.3	2646.2	3269.3	863.71	-1.62E-07	0.00029205	0.14972	0.014551	4.5338	0.22056	821910	886210	2334.9	1657.1	1952	265.52	0.000041835	0.000011254	0.024363
382	3.01E+05	704.08	0.0014203	94081	94509	256.86	2653	3281.8	860.01	-1.58E-07	0.0002882	0.14957	0.01445	4.6785	0.21374	823000	887380	2332.4	1663.5	1961.4	265.57	0.000041333	0.000011283	0.024499
383	3.11E+05	702.93	0.0014226	97359	97802	265.43	2659.9	3294.3	856.3	-1.55E-07	0.00028441	0.14941	0.014349	4.8269	0.20717	824100	888550	2330	1669.9	1970.8	265.62	0.000040839	0.000011313	0.024635
384	3.21E+05	701.76	0.001425	100650	101110	274.01	2666.7	3306.9	852.57	-1.52E-07	0.00028068	0.14925	0.014248	4.9792	0.20083	825190	889710	2327.7	1676.4	1980.4	265.66	0.000040353	0.000011342	0.024772
385	3.32E+05	700.6	0.0014274	103950	104430	282.61	2673.5	3319.5	848.82	-1.48E-07	0.00027701	0.14909	0.014147	5.1355	0.19472	826270	890860	2325.3	1682.9	1990.1	265.69	0.000039874	0.000011372	0.02491
386	3.42E+05	699.42	0.0014298	107270	107760	291.21	2680.3	3332.2	845.06	-1.45E-07	0.00027339	0.14893	0.014046	5.2958	0.18883	827360	892010	2323	1689.4	1999.9	265.73	0.000039403	0.000011402	0.025048
387	3.53E+05	698.23	0.0014322	110590	111100	299.82	2687	3345	841.28	-1.42E-07	0.00026983	0.14877	0.013944	5.4601	0.18315	828430	893150	2320.6	1696	2009.8	265.75	0.00003894	0.000011431	0.025188
388	3.65E+05	697.04	0.0014346	113930	114460	308.44	2693.7	3357.8	837.48	-1.38E-07	0.00026632	0.1486	0.013842	5.6287	0.17766	829510	894290	2318.3	1702.7	2019.8	265.77	0.000038483	0.000011461	0.025329
389	3.76E+05	695.84	0.0014371	117290	117830	317.07	2700.3	3370.7	833.67	-1.35E-07	0.00026287	0.14844	0.013739	5.8015	0.17237	830580	895420	2316	1709.3	2029.9	265.79	0.000038034	0.000011491	0.025471
390	3.88E+05	694.64	0.0014396	120650	121210	325.71	2706.9	3383.7	829.84	-1.31E-07	0.00025947	0.14828	0.013637	5.9787	0.16726	831640	896540	2313.7	1716.1	2040.2	265.8	0.000037592	0.00001152	0.025614
391	4.00E+05	693.42	0.0014421	124030	124610	334.36	2713.5	3396.7	825.99	-1.27E-07	0.00025612	0.14812	0.013534	6.1604	0.16233	832700	897660	2311.5	1722.8	2050.6	265.8	0.000037157	0.00001155	0.025758
392	4.13E+05	692.2	0.0014447	127420	128010	343.02	2720.1	3409.8	822.12	-1.24E-07	0.00025282	0.14796	0.013431	6.3465	0.15757	833760	898770	2309.2	1729.6	2061.1	265.8	0.000036729	0.00001158	0.025903
393	4.25E+05	690.97	0.0014472	130820	131440	351.69	2726.6	3422.9	818.24	-1.20E-07	0.00024956	0.14779	0.013327	6.5373	0.15297	834810	899880	2307	1736.5	2071.7	265.79	0.000036307	0.00001161	0.026049
394	4.38E+05	689.73	0.0014498	134230	134870	360.37	2733	3436.1	814.33	-1.16E-07	0.00024636	0.14763	0.013224	6.7328	0.14853	835860	900970	2304.8	1743.4	2082.5	265.78	0.000035893	0.00001164	0.026196
395	4.52E+05	688.48	0.0014525	137660	138320	369.06	2739.4	3449.3	810.41	-1.12E-07	0.0002432	0.14747	0.01312	6.9331	0.14424	836900	902060	2302.6	1750.3	2093.4	265.76	0.000035484	0.00001167	0.026344
396	4.66E+05	687.22	0.0014551	141100	141780	377.76	2745.8	3462.6	806.47	-1.08E-07	0.00024009	0.1473	0.013016	7.1383	0.14009	837940	903150	2300.4	1757.3	2104.5	265.74	0.000035082	0.0000117	0.026494
397	4.80E+05	685.96	0.0014578	144550	145250	386.47	2752.1	3475.9	802.51	-1.05E-07	0.00023702	0.14714	0.012911	7.3485	0.13608	838970	904230	2298.2	1764.3	2115.7	265.71	0.000034687	0.00001173	0.026644
398	4.94E+05	684.68	0.0014605	148020	148740	395.2	2758.3	3489.3	798.53	-1.01E-07	0.000234	0.14698	0.012807	7.5637	0.13221	840000	905300	2296.1	1771.3	2127	265.67	0.000034297	0.00001176	0.026796
399	5.09E+05	683.4	0.0014633	151500	152240	403.93	2764.5	3502.7	794.53	-9.66E-08	0.00023101	0.14681	0.012702	7.7842	0.12847	841020	906360	2293.9	1778.4	2138.4	265.63	0.000033914	0.00001179	0.026949
400	5.24E+05	682.11	0.001466	154990	155760	412.67	2770.7	3516.2	790.52	-9.25E-08	0.00022808	0.14665	0.012597	8.0099	0.12485	842040	907410	2291.8	1785.6	2150.1	265.58	0.000033536	0.00001182	0.027104
401	5.39E+05	680.81	0.0014688	158490	159280	421.42	2776.8	3529.7	786.48	-8.84E-08	0.00022518	0.14648	0.012491	8.241	0.12134	843050	908460	2289.7	1792.8	2161.8	265.53	0.000033165	0.000011851	0.02726
402	5.55E+05	679.5	0.0014717	162010	162830	430.18	2782.8	3543.2	782.43	-8.42E-08	0.00022232	0.14631	0.012386	8.4777	0.11796	844050	909500	2287.6	1800	2173.7	265.47	0.000032799	0.000011881	0.027417
403	5.71E+05	678.18	0.0014745	165540	166380	438.96	2788.8	3556.8	778.36	-7.99E-08	0.0002195	0.14615	0.01228	8.7199	0.11468	845060	910540	2285.5	1807.3	2185.8	265.4	0.000032439	0.000011911	0.027575
404	5.87E+05	676.85	0.0014774	169080	169950	447.74	2794.7	3570.4	774.27	-7.56E-08	0.00021673	0.14598	0.012174	8.9678	0.11151	846050	911560	2283.4	1814.6	2198	265.33	0.000032085	0.000011942	0.027735
405	6.04E+05	675.51	0.0014804	172640	173530	456.53	2800.6	3584	770.16	-7.13E-08	0.00021399	0.14581	0.012068	9.2215	0.10844	847040	912580	2281.3	1822	2210.4	265.26	0.000031736	0.000011972	0.027896
406	6.22E+05	674.17	0.0014833	176200	177130	465.34	2806.4	3597.7	766.03	-6.69E-08	0.00021129	0.14565	0.011961	9.4811	0.10547	848030	913590	2279.3	1829.4	2223	265.17	0.000031393	0.000012003	0.028059
407	6.39E+05	672.81	0.0014863	179780	180730	474.15	2812.1	3611.4	761.88	-6.24E-08	0.00020862	0.14548	0.011855	9.7468	0.1026	849010	914590	2277.2	1836.9	2235.7	265.08	0.000031055	0.000012034	0.028223
408	6.57E+05	671.44	0.0014893	183380	184360	482.97	2817.8	3625.1	757.71	-5.79E-08	0.00020599	0.14531	0.011748	10.019	0.099814	849980	915580	2275.2	1844.4	2248.6	264.98	0.000030723	0.000012064	0.028389
409	6.76E+05	670.06	0.0014924	186980	187990	491.8	2823.4	3638.8	753.52	-5.33E-08	0.0002034	0.14514	0.011641	10.297	0.097119	850950	916570	2273.2	1852	2261.7	264.88	0.000030395	0.000012095	0.028556
410	6.95E+05	668.67	0.0014955	190600	191640	500.65	2828.9	3652.5	749.32	-4.86E-08	0.00020084	0.14497	0.011533	10.581	0.094508	851910	917550	2271.1	1859.6	2274.9	264.77	0.000030073	0.000012126	0.028725
411	7.14E+05	667.27	0.0014986	194230	195300	509.5	2834.4	3666.2	745.09	-4.39E-08	0.00019832	0.1448	0.011426	10.872	0.091978	852860	918510	2269.1	1867.2	2288.4	264.65	0.000029755	0.000012157	0.028896
412	7.33E+05	665.87	0.0015018	197880	198980	518.36	2839.7	3680	740.85	-3.92E-08	0.00019583	0.14464	0.011318	11.17	0.089528	853810	919470	2267.1	1874.9	2302	264.53	0.000029443	0.000012188	0.029068
413	7.54E+05	664.45	0.001505	201540	202670	527.23	2845.1	3693.7	736.59	-3.43E-08	0.00019337	0.14447	0.01121	11.474	0.087153	854760	920430	2265.1	1882.7	2315.8	264.4	0.000029136	0.00001222	0.029242
414	7.74E+05	663.02	0.0015083	205210	206370	536.11	2850.3	3707.5	732.31	-2.94E-08	0.00019094	0.1443	0.011102	11.785	0.084852	855690	921370	2263.2	1890.5	2329.9	264.27	0.000028833	0.000012251	0.029417
415	7.95E+05	661.58	0.0015115	208890	210090	545	2855.5	3721.2	728.01	-2.44E-08	0.00018855	0.14413	0.010994	12.103	0.082621	856620	922300	2261.2	1898.3	2344.1	264.12	0.000028535	0.000012283	0.029595
416	8.16E+05	660.12	0.0015149	212580	213820	553.9	2860.5	3734.9	723.69	-1.94E-08	0.00018619	0.14396	0.010885	12.429	0.080459	857540	923230	2259.2	1906.2	2358.5	263.97	0.000028242	0.000012314	0.029774
417	8.38E+05	658.66	0.0015182	216290	217560	562.81	2865.6	3748.7	719.36	-1.42E-08	0.00018386	0.14379	0.010777	12.761	0.078361	858460	924140	2257.2	1914.1	2373.2	263.82	0.000027953	0.000012346	0.029955
418	8.60E+05	657.19	0.0015216	220010	221320	571.73	2870.5	3762.4	715.01	-9.04E-09	0.00018156	0.14362	0.010668	13.101	0.076328	859370	925050	2255.3	1922.1	2388	263.65	0.000027669	0.000012378	0.030139
419	8.83E+05	655.7	0.0015251	223740	225090	580.65	2875.3	3776.1	710.64	-3.77E-09	0.00017929	0.14345	0.010559	13.449	0.074355	860270	925940	2253.3	1930.2	2403.1	263.48	0.000027389	0.00001241	0.030324
420	9.06E+05	654.21	0.0015286	227490	228870	589.58	2880.1	3789.8	706.25	1.58E-09	0.00017705	0.14328	0.010449	13.804	0.072442	861170	926830	2251.4	1938.2	2418.4	263.3	0.000027114	0.000012442	0.030511
421	9.30E+05	652.7	0.0015321	231240	232670	598.53	2884.8	3803.4	701.85	7.00E-09	0.00017484	0.14311	0.01034	14.167	0.070585	862060	927710	2249.4	1946.4	2434	263.12	0.000026843	0.000012475	0.0307
422	9.54E+05	651.18	0.0015357	235010	236480	607.47	2889.5	3817.1	697.42	1.25E-08	0.00017266	0.14294	0.01023	14.538	0.068784	862940	928570	2247.5	1954.6	2449.8	262.93	0.000026576	0.000012507	0.030892
423	9.79E+05	649.65	0.0015393	238790	240300	616.43	2894	3830.7	692.99	1.81E-08	0.00017051	0.14277	0.010121	14.918	0.067035	863810	929430	2245.6	1962.8	2465.8	262.73	0.000026314	0.00001254	0.031085
424	1.00E+06	648.11	0.001543	242590	244130	625.4	2898.5	3844.3	688.53	2.38E-08	0.00016838	0.1426	0.010011	15.305	0.065338	864680	930280	2243.7	1971.1	2482.1	262.52	0.000026055	0.000012573	0.031281
425	1.03E+06	646.55	0.0015467	246390	247980	634.37	2902.9	3857.9	684.06	2.95E-08	0.00016629	0.14243	0.0099008	15.701	0.06369	865540	931110	2241.7	1979.4	2498.7	262.31	0.000025801	0.000012606	0.031479
426	1.06E+06	644.99	0.0015504	250210	251840	643.35	2907.2	3871.4	679.57	3.54E-08	0.00016422	0.14226	0.0097906	16.105	0.062091	866390	931940	2239.8	1987.8	2515.5	262.09	0.00002555	0.000012639	0.03168
427	1.08E+06	643.41	0.0015542	254040	255720	652.34	2911.5	3885	675.07	4.13E-08	0.00016217	0.14209	0.0096802	16.519	0.060537	867240	932750	2237.9	1996.2	2532.6	261.86	0.000025304	0.000012672	0.031883
428	1.11E+06	641.82	0.0015581	257880	259610	661.33	2915.7	3898.5	670.55	4.73E-08	0.00016015	0.14192	0.0095697	16.941	0.059028	868070	933560	2236	2004.7	2550	261.62	0.000025061	0.000012706	0.032088
429	1.14E+06	640.22	0.001562	261730	263510	670.33	2919.8	3912	666.01	5.35E-08	0.00015816	0.14175	0.0094591	17.372	0.057563	868900	934350	2234.1	2013.3	2567.7	261.37	0.000024823	0.00001274	0.032296
430	1.17E+06	638.6	0.0015659	265590	267420	679.34	2923.8	3925.5	661.46	5.97E-08	0.0001562	0.14158	0.0093483	17.813	0.056139	869720	935130	2232.2	2021.9	2585.7	261.12	0.000024588	0.000012774	0.032507
431	1.19E+06	636.98	0.0015699	269470	271340	688.35	2927.8	3938.9	656.9	6.60E-08	0.00015426	0.14141	0.0092374	18.263	0.054755	870530	935910	2230.3	2030.5	2604	260.86	0.000024356	0.000012808	0.03272
432	1.22E+06	635.34	0.001574	273360	275280	697.37	2931.7	3952.4	652.31	7.24E-08	0.00015234	0.14124	0.0091263	18.723	0.05341	871330	936660	2228.4	2039.2	2622.7	260.59	0.000024129	0.000012842	0.032936
433	1.25E+06	633.69	0.0015781	277250	279230	706.39	2935.6	3965.8	647.72	7.90E-08	0.00015045	0.14107	0.0090151	19.193	0.052104	872120	937410	2226.4	2048	2641.6	260.31	0.000023905	0.000012877	0.033155
434	1.28E+06	632.02	0.0015822	281160	283190	715.42	2939.4	3979.2	643.11	8.57E-08	0.00014858	0.1409	0.0089038	19.672	0.050833	872910	938150	2224.5	2056.8	2661	260.03	0.000023685	0.000012912	0.033377
435	1.31E+06	630.35	0.0015864	285080	287170	724.46	2943.1	3992.6	638.48	9.24E-08	0.00014674	0.14074	0.0087924	20.162	0.049598	873680	938870	2222.6	2065.7	2680.6	259.74	0.000023468	0.000012948	0.033602
436	1.35E+06	628.66	0.0015907	289020	291160	733.5	2946.8	4006.1	633.84	9.93E-08	0.00014492	0.14057	0.0086809	20.662	0.048397	874450	939580	2220.7	2074.6	2700.7	259.43	0.000023254	0.000012983	0.03383
437	1.38E+06	626.96	0.001595	292960	295160	742.55	2950.4	4019.5	629.19	1.06E-07	0.00014313	0.1404	0.0085693	21.173	0.047229	875210	940280	2218.8	2083.6	2721.1	259.12	0.000023044	0.000013019	0.034061
438	1.41E+06	625.24	0.0015994	296910	299170	751.6	2953.9	4033	624.52	1.14E-07	0.00014136	0.14023	0.0084575	21.695	0.046093	875950	940970	2216.9	2092.7	2741.9	258.8	0.000022838	0.000013055	0.034296
439	1.44E+06	623.52	0.0016038	300880	303190	760.65	2957.5	4046.5	619.84	1.21E-07	0.00013961	0.14007	0.0083457	22.228	0.044988	876690	941640	2215	2101.8	2763.1	258.48	0.000022634	0.000013092	0.034534
440	1.48E+06	621.78	0.0016083	304850	307230	769.71	2960.9	4060	615.14	1.28E-07	0.00013788	0.1399	0.0082337	22.773	0.043912	877420	942300	2213.1	2110.9	2784.8	258.14	0.000022434	0.000013128	0.034776
441	1.51E+06	620.02	0.0016128	308840	311280	778.78	2964.4	4073.6	610.43	1.36E-07	0.00013618	0.13974	0.0081217	23.329	0.042866	878130	942950	2211.1	2120.2	2806.8	257.79	0.000022238	0.000013165	0.035021
442	1.55E+06	618.26	0.0016175	312830	315340	787.85	2967.8	4087.2	605.71	1.44E-07	0.00013449	0.13957	0.0080095	23.896	0.041848	878840	943580	2209.2	2129.5	2829.4	257.44	0.000022044	0.000013203	0.035269
443	1.58E+06	616.48	0.0016221	316840	319410	796.92	2971.2	4100.9	600.97	1.52E-07	0.00013283	0.13941	0.0078973	24.476	0.040856	879540	944200	2207.3	2138.8	2852.4	257.07	0.000021853	0.000013241	0.035522
444	1.62E+06	614.68	0.0016269	320860	323490	806	2974.5	4114.8	596.21	1.60E-07	0.00013119	0.13925	0.007785	25.068	0.039891	880220	944800	2205.3	2148.2	2875.9	256.7	0.000021666	0.000013279	0.035779
445	1.66E+06	612.87	0.0016317	324890	327590	815.08	2977.8	4128.7	591.44	1.68E-07	0.00012957	0.13909	0.0076726	25.673	0.038952	880900	945390	2203.4	2157.7	2899.9	256.32	0.000021482	0.000013318	0.036039
446	1.69E+06	611.05	0.0016365	328930	331700	824.16	2981.1	4142.7	586.66	1.76E-07	0.00012798	0.13892	0.0075602	26.29	0.038037	881560	945970	2201.4	2167.2	2924.4	255.92	0.000021301	0.000013357	0.036304
447	1.73E+06	609.22	0.0016415	332980	335820	833.25	2984.4	4156.9	581.86	1.85E-07	0.0001264	0.13876	0.0074477	26.921	0.037146	882210	946530	2199.5	2176.9	2949.5	255.52	0.000021122	0.000013396	0.036574
448	1.77E+06	607.37	0.0016465	337040	339950	842.35	2987.6	4171.2	577.04	1.94E-07	0.00012484	0.1386	0.0073351	27.565	0.036278	882850	947070	2197.5	2186.5	2975.2	255.11	0.000020947	0.000013436	0.036847
449	1.81E+06	605.5	0.0016515	341110	344100	851.45	2990.9	4185.7	572.21	2.03E-07	0.0001233	0.13844	0.0072225	28.223	0.035432	883480	947600	2195.5	2196.3	3001.4	254.68	0.000020775	0.000013476	0.037126
450	1.85E+06	603.62	0.0016567	345190	348260	860.55	2994.1	4200.4	567.36	2.12E-07	0.00012179	0.13829	0.0071098	28.895	0.034608	884090	948110	2193.6	2206.1	3028.3	254.25	0.000020605	0.000013517	0.037409
451	1.89E+06	601.73	0.0016619	349290	352430	869.66	2997.4	4215.4	562.49	2.22E-07	0.00012029	0.13813	0.006997	29.581	0.033805	884690	948610	2191.6	2216	3055.8	253.8	0.000020439	0.000013559	0.037697
452	1.93E+06	599.82	0.0016672	353390	356610	878.77	3000.6	4230.6	557.6	2.32E-07	0.00011881	0.13797	0.0068842	30.282	0.033023	885280	949090	2189.6	2225.9	3084.1	253.35	0.000020275	0.000013601	0.037991
453	1.97E+06	597.89	0.0016725	357510	360810	887.89	3003.9	4246.1	552.7	2.42E-07	0.00011735	0.13782	0.0067714	30.998	0.03226	885860	949550	2187.5	2236	3113	252.88	0.000020114	0.000013643	0.038289
454	2.02E+06	595.95	0.001678	361630	365020	897.01	3007.2	4261.9	547.77	2.52E-07	0.0001159	0.13766	0.0066585	31.73	0.031516	886420	949990	2185.5	2246.1	3142.7	252.4	0.000019956	0.000013686	0.038594
455	2.06E+06	593.99	0.0016835	365770	369240	906.14	3010.5	4278.1	542.83	2.63E-07	0.00011448	0.13751	0.0065456	32.477	0.030791	886970	950420	2183.5	2256.3	3173.1	251.91	0.0000198	0.00001373	0.038904
456	2.10E+06	592.02	0.0016891	369920	373470	915.27	3013.8	4294.6	537.86	2.74E-07	0.00011307	0.13735	0.0064327	33.241	0.030083	887500	950820	2181.4	2266.6	3204.4	251.41	0.000019648	0.000013774	0.03922
457	2.15E+06	590.03	0.0016948	374080	377720	924.41	3017.1	4311.6	532.87	2.85E-07	0.00011168	0.1372	0.0063197	34.021	0.029393	888020	951210	2179.3	2276.9	3236.6	250.9	0.000019497	0.000013819	0.039542
458	2.20E+06	588.02	0.0017006	378250	381990	933.56	3020.5	4329	527.86	2.97E-07	0.00011031	0.13705	0.0062067	34.819	0.02872	888520	951580	2177.2	2287.3	3269.6	250.38	0.00001935	0.000013864	0.03987
459	2.24E+06	585.99	0.0017065	382440	386260	942.72	3023.9	4346.9	522.82	3.09E-07	0.00010895	0.1369	0.0060938	35.634	0.028063	889010	951930	2175.1	2297.9	3303.6	249.84	0.000019205	0.00001391	0.040206
460	2.29E+06	583.95	0.0017125	386630	390550	951.88	3027.4	4365.3	517.75	3.21E-07	0.00010761	0.13675	0.0059808	36.466	0.027422	889480	952250	2173	2308.5	3338.6	249.29	0.000019063	0.000013957	0.040548
461	2.34E+06	581.88	0.0017186	390840	394860	961.05	3030.9	4384.4	512.66	3.34E-07	0.00010629	0.13661	0.0058678	37.318	0.026797	889940	952560	2170.8	2319.2	3374.7	248.72	0.000018923	0.000014005	0.040898
462	2.39E+06	579.8	0.0017247	395070	399180	970.24	3034.5	4404.1	507.54	3.48E-07	0.00010498	0.13646	0.0057548	38.188	0.026186	890370	952840	2168.6	2329.9	3411.9	248.15	0.000018786	0.000014053	0.041255
463	2.43E+06	577.7	0.001731	399300	403520	979.43	3038.1	4424.5	502.39	3.62E-07	0.00010368	0.13631	0.0056418	39.078	0.02559	890790	953100	2166.4	2340.8	3450.2	247.56	0.000018652	0.000014103	0.04162
464	2.49E+06	575.57	0.0017374	403550	407870	988.63	3041.7	4445.6	497.2	3.76E-07	0.0001024	0.13617	0.0055288	39.988	0.025007	891190	953340	2164.2	2351.8	3489.8	246.95	0.00001852	0.000014153	0.041993
465	2.54E+06	573.43	0.0017439	407820	412240	997.85	3045.5	4467.6	491.98	3.91E-07	0.00010114	0.13603	0.0054158	40.919	0.024439	891580	953550	2162	2362.9	3530.7	246.33	0.00001839	0.000014204	0.042375
466	2.59E+06	571.26	0.0017505	412100	416630	1007.1	3049.3	4490.5	486.73	4.07E-07	0.000099885	0.13588	0.0053029	41.871	0.023883	891940	953740	2159.7	2374.1	3573.1	245.7	0.000018263	0.000014256	0.042766
467	2.64E+06	569.06	0.0017573	416390	421030	1016.3	3053.2	4514.3	481.44	4.23E-07	0.000098647	0.13574	0.00519	42.845	0.02334	892280	953900	2157.4	2385.3	3616.9	245.05	0.000018139	0.000014309	0.043166
468	2.69E+06	566.85	0.0017641	420700	425450	1025.6	3057.2	4539.1	476.11	4.40E-07	0.000097422	0.1356	0.0050771	43.842	0.022809	892600	954030	2155	2396.7	3662.3	244.38	0.000018017	0.000014363	0.043576
469	2.75E+06	564.6	0.0017712	425030	429900	1034.9	3061.2	4565.1	470.73	4.57E-07	0.000096209	0.13546	0.0049642	44.863	0.02229	892900	954140	2152.7	2408.3	3709.4	243.7	0.000017897	0.000014418	0.043997
470	2.80E+06	562.33	0.0017783	429370	434360	1044.2	3065.4	4592.3	465.32	4.76E-07	0.000095008	0.13533	0.0048514	45.907	0.021783	893180	954220	2150.2	2419.9	3758.3	243	0.00001778	0.000014474	0.044428
471	2.86E+06	560.04	0.0017856	433740	438840	1053.5	3069.6	4620.8	459.85	4.95E-07	0.000093819	0.13519	0.0047386	46.977	0.021287	893430	954270	2147.8	2431.6	3809.1	242.28	0.000017665	0.000014532	0.044872
472	2.91E+06	557.71	0.0017931	438120	443340	1062.8	3074	4650.8	454.34	5.15E-07	0.000092641	0.13506	0.0046259	48.072	0.020802	893660	954290	2145.3	2443.5	3862	241.55	0.000017552	0.00001459	0.045327
473	2.97E+06	555.35	0.0018007	442520	447870	1072.2	3078.5	4682.3	448.77	5.36E-07	0.000091473	0.13492	0.0045133	49.195	0.020327	893860	954270	2142.8	2455.5	3917.1	240.8	0.000017442	0.00001465	0.045795
474	3.03E+06	552.96	0.0018084	446940	452420	1081.6	3083	4715.5	443.15	5.58E-07	0.000090315	0.13479	0.0044007	50.345	0.019863	894040	954220	2140.2	2467.7	3974.6	240.03	0.000017334	0.000014712	0.046277
475	3.09E+06	550.54	0.0018164	451380	456990	1091	3087.7	4750.5	437.48	5.81E-07	0.000089167	0.13466	0.0042882	51.524	0.019408	894190	954140	2137.6	2480	4034.6	239.24	0.000017229	0.000014775	0.046773
476	3.15E+06	548.07	0.0018246	455850	461590	1100.4	3092.5	4787.5	431.74	6.05E-07	0.000088027	0.13453	0.0041757	52.734	0.018963	894300	954020	2134.9	2492.4	4097.4	238.43	0.000017126	0.000014839	0.047284
477	3.21E+06	545.58	0.0018329	460330	466220	1109.9	3097.5	4826.6	425.94	6.31E-07	0.000086896	0.13441	0.0040634	53.975	0.018527	894390	953860	2132.2	2505	4163.2	237.59	0.000017025	0.000014905	0.047812
478	3.27E+06	543.04	0.0018415	464850	470870	1119.4	3102.6	4868.2	420.08	6.58E-07	0.000085772	0.13428	0.0039511	55.248	0.0181	894450	953670	2129.4	2517.7	4232.2	236.74	0.000016926	0.000014973	0.048356
479	3.33E+06	540.46	0.0018503	469390	475560	1128.9	3107.8	4912.3	414.15	6.86E-07	0.000084656	0.13416	0.0038389	56.555	0.017682	894470	953430	2126.6	2530.7	4304.7	235.86	0.00001683	0.000015042	0.04892
480	3.40E+06	537.83	0.0018593	473950	480270	1138.5	3113.2	4959.3	408.14	7.16E-07	0.000083545	0.13404	0.0037268	57.899	0.017272	894460	953140	2123.7	2543.7	4381.1	234.97	0.000016736	0.000015113	0.049503
481	3.46E+06	535.15	0.0018686	478550	485020	1148.2	3118.7	5009.4	402.06	7.48E-07	0.000082441	0.13392	0.0036148	59.279	0.016869	894410	952810	2120.7	2557	4461.7	234.04	0.000016644	0.000015186	0.050107
482	3.53E+06	532.43	0.0018782	483180	489810	1157.8	3124.4	5062.9	395.89	7.82E-07	0.00008134	0.13381	0.003503	60.698	0.016475	894330	952440	2117.7	2570.5	4546.8	233.09	0.000016555	0.000015262	0.050733
483	3.59E+06	529.65	0.0018881	487840	494630	1167.6	3130.3	5120.3	389.64	8.18E-07	0.000080244	0.1337	0.0033912	62.158	0.016088	894200	952010	2114.5	2584.2	4637	232.12	0.000016467	0.00001534	0.051385
484	3.66E+06	526.81	0.0018982	492540	499490	1177.4	3136.3	5181.9	383.31	8.56E-07	0.000079151	0.13359	0.0032796	63.662	0.015708	894020	951530	2111.3	2598.1	4732.7	231.12	0.000016382	0.00001542	0.052062
485	3.73E+06	523.9	0.0019088	497270	504390	1187.2	3142.6	5248.2	376.88	8.97E-07	0.00007806	0.13349	0.0031681	65.21	0.015335	893810	950990	2108	2612.2	4834.5	230.09	0.000016299	0.000015502	0.052768
486	3.80E+06	520.93	0.0019196	502050	509340	1197.1	3149.1	5319.9	370.35	9.40E-07	0.000076971	0.13339	0.0030568	66.807	0.014968	893540	950390	2104.6	2626.6	4943.2	229.02	0.000016218	0.000015587	0.053506
487	3.87E+06	517.89	0.0019309	506870	514340	1207.1	3155.8	5397.4	363.72	9.86E-07	0.000075881	0.13329	0.0029456	68.455	0.014608	893220	949720	2101.2	2641.2	5059.4	227.93	0.000016139	0.000015676	0.054277
488	3.94E+06	514.76	0.0019426	511730	519390	1217.2	3162.7	5481.6	356.99	1.04E-06	0.00007479	0.1332	0.0028346	70.156	0.014254	892840	948990	2097.5	2656.1	5184.1	226.81	0.000016062	0.000015767	0.055085
489	4.01E+06	511.55	0.0019548	516650	524490	1227.4	3169.9	5573.5	350.14	1.09E-06	0.000073697	0.13312	0.0027237	71.915	0.013905	892410	948180	2093.8	2671.3	5318.4	225.65	0.000015986	0.000015862	0.055935
490	4.08E+06	508.25	0.0019675	521620	529650	1237.6	3177.3	5674	343.18	1.15E-06	0.0000726	0.13305	0.002613	73.735	0.013562	891910	947290	2090	2686.8	5463.5	224.46	0.000015913	0.00001596	0.056829
491	4.16E+06	504.84	0.0019808	526650	534880	1248	3185.1	5784.4	336.1	1.21E-06	0.000071498	0.13298	0.0025025	75.62	0.013224	891340	946320	2086	2702.7	5620.8	223.23	0.000015841	0.000016062	0.057772
492	4.23E+06	501.33	0.0019947	531740	540180	1258.5	3193.1	5906.3	328.89	1.28E-06	0.000070389	0.13293	0.0023922	77.576	0.012891	890690	945260	2081.8	2718.9	5792.1	221.96	0.00001577	0.000016168	0.058772
493	4.31E+06	497.69	0.0020093	536900	545560	1269.1	3201.5	6041.5	321.54	1.35E-06	0.000069272	0.13289	0.0022821	79.607	0.012562	889970	944100	2077.5	2735.5	5979.5	220.64	0.000015701	0.000016279	0.059833
494	4.39E+06	493.91	0.0020247	542140	551020	1279.8	3210.3	6192.3	314.06	1.43E-06	0.000068143	0.13287	0.0021723	81.721	0.012237	889160	942830	2073	2752.5	6185.5	219.29	0.000015633	0.000016395	0.060964
495	4.46E+06	489.99	0.0020409	547460	556570	1290.7	3219.5	6361.5	306.44	1.51E-06	0.000067001	0.13286	0.0020626	83.923	0.011916	888250	941450	2068.3	2770	6413.1	217.89	0.000015566	0.000016517	0.062173
496	4.54E+06	485.89	0.0020581	552880	562230	1301.8	3229.2	6552.7	298.66	1.61E-06	0.000065843	0.13288	0.0019532	86.223	0.011598	887240	939930	2063.3	2788	6666.4	216.44	0.000015499	0.000016644	0.063472
497	4.62E+06	481.61	0.0020764	558400	568000	1313.1	3239.3	6770.3	290.73	1.71E-06	0.000064665	0.13293	0.0018441	88.63	0.011283	886110	938280	2058.1	2806.6	6949.9	214.94	0.000015433	0.000016778	0.064875
498	4.71E+06	477.12	0.0020959	564030	573900	1324.6	3250	7020.1	282.65	1.83E-06	0.000063465	0.13301	0.0017353	91.156	0.01097	884850	936470	2052.7	2825.7	7269.7	213.38	0.000015366	0.00001692	0.066396
499	4.79E+06	472.39	0.0021169	569800	579940	1336.4	3261.4	7309.3	274.41	1.96E-06	0.000062238	0.13314	0.0016267	93.813	0.01066	883440	934480	2046.9	2845.6	7633.7	211.77	0.000015298	0.00001707	0.068055
500	4.87E+06	467.38	0.0021396	575720	586140	1348.5	3273.5	7647.7	266.01	2.10E-06	0.000060979	0.13333	0.0015185	96.617	0.01035	881880	932300	2040.8	2866.2	8051.9	210.09	0.000015228	0.000017229	0.069878
501	4.96E+06	462.05	0.0021643	581810	592540	1360.9	3286.4	8048.3	257.46	2.26E-06	0.000059683	0.13359	0.0014106	99.589	0.010041	880130	929900	2034.3	2887.7	8537.8	208.35	0.000015155	0.000017399	0.071895
502	5.04E+06	456.36	0.0021913	588100	599150	1373.7	3300.2	8528.3	248.77	2.43E-06	0.000058342	0.13395	0.001303	102.75	0.0097323	878170	927240	2027.3	2910.1	9109.7	206.53	0.000015077	0.000017582	0.074146
503	5.13E+06	450.23	0.0022211	594620	606010	1387	3315.1	9111.7	239.95	2.63E-06	0.000056949	0.13445	0.0011959	106.13	0.009422	875960	924300	2019.7	2933.8	9793.2	204.64	0.000014994	0.000017778	0.076684
504	5.22E+06	443.6	0.0022543	601410	613170	1400.8	3331.2	9831.5	231.04	2.86E-06	0.000055494	0.13511	0.0010892	109.78	0.0091094	873470	921010	2011.6	2958.7	10625	202.66	0.000014901	0.000017992	0.079578
505	5.31E+06	436.36	0.0022917	608530	620690	1415.3	3348.7	10734	222.08	3.11E-06	0.000053967	0.136	0.00098293	113.73	0.008793	870630	917310	2002.6	2985.2	11659	200.59	0.000014797	0.000018226	0.082925
506	5.40E+06	428.39	0.0023343	616030	628630	1430.6	3367.8	11884	213.14	3.40E-06	0.000052355	0.1372	0.00087719	118.05	0.0084706	867380	913120	1992.8	3013.5	12980	198.41	0.000014677	0.000018486	0.086863
507	5.49E+06	419.56	0.0023834	624000	637090	1446.9	3388.7	13375	204.34	3.72E-06	0.000050645	0.13882	0.00077202	122.85	0.0081398	863610	908310	1981.8	3044.3	14726	196.12	0.000014533	0.000018777	0.091595
508	5.59E+06	409.7	0.0024408	632540	646180	1464.3	3411.5	15339	195.8	4.08E-06	0.000048826	0.14095	0.0006675	128.26	0.0077966	859180	902720	1969.3	3077.9	17139	193.69	0.000014358	0.000019109	0.09744
509	5.68E+06	398.62	0.0025087	641760	656010	1483.2	3436	17975	187.71	4.49E-06	0.00004689	0.14374	0.0005637	134.49	0.0074353	853840	896070	1954.8	3115.5	20679	191.09	0.000014135	0.000019499	0.10494
510	5.78E+06	386.14	0.0025897	651780	666740	1503.8	3462	21626	180.23	4.93E-06	0.000044832	0.14738	0.00046077	141.92	0.0070461	847220	887920	1937.4	3158.6	26346	188.28	0.00001384	0.000019971	0.11509
511	5.87E+06	372.05	0.0026878	662780	678570	1526.4	3488.6	27051	173.5	5.43E-06	0.000042653	0.15232	0.00035887	151.27	0.0066108	838560	877400	1915.5	3210.1	36736	185.15	0.000013429	0.000020579	0.13005
512	5.98E+06	355.97	0.0028092	675050	691840	1551.8	3514.8	36423	167.56	6.01E-06	0.000040336	0.15984	0.00025828	164.23	0.0060889	826170	862560	1885.3	3276.6	60761	181.47	0.000012801	0.00002145	0.15557
513	6.08E+06	337.02	0.0029672	689270	707300	1581.4	3538.9	58061	162.46	6.69E-06	0.00003781	0.17423	0.00015947	186.12	0.005373	805140	837800	1835.8	3374.2	141010	176.41	0.000011695	0.000023002	0.20914
