Temperature (K)	Pressure (Pa)	"Density (l, kg/m3)"	"Volume (l, m3/kg)"	"Internal Energy (l, J/kg)"	"Enthalpy (l, J/kg)"	"Entropy (l, J/kg*K)"	"Cv (l, J/kg*K)"	"Cp (l, J/kg*K)"	"Sound Spd. (l, m/s)"	"Joule-Thomson (l, K/Pa)"	"Viscosity (l, Pa*s)"	"Therm. Cond. (l, W/m*K)"	"Surf. Tension (l, N/m)"	"Density (v, kg/m3)"	"Volume (v, m3/kg)"	"Internal Energy (v, J/kg)"	"Enthalpy (v, J/kg)"	"Entropy (v, J/kg*K)"	"Cv (v, J/kg*K)"	"Cp (v, J/kg*K)"	"Sound Spd. (v, m/s)"	"Joule-Thomson (v, K/Pa)"	"Viscosity (v, Pa*s)"	"Therm. Cond. (v, W/m*K)"
169.85	252.17	1508.7	0.00066284	70984	70984	409.15	824.5	1217.8	1117.9	-3.9137E-07	0.0011106	0.12482	0.02903	0.020372	49.088	300270	312650	1832	555.26	628.28	118.33	0.000088145	4.13E-06	0.0034029
170.19	262.2	1507.8	0.00066322	71398	71398	411.59	824.48	1217.7	1116.2	-3.9126E-07	0.001105	0.12467	0.02897	0.021139	47.305	300460	312870	1830.4	556.17	629.2	118.43	0.000087735	4.15E-06	0.0034305
170.53	272.57	1507	0.00066359	71812	71812	414.02	824.46	1217.6	1114.5	-3.9114E-07	0.0010994	0.12453	0.028911	0.021932	45.595	300650	313080	1828.8	557.08	630.11	118.54	0.000087327	4.17E-06	0.0034581
170.87	283.3	1506.1	0.00066396	72226	72226	416.45	824.44	1217.5	1112.9	-3.9102E-07	0.0010938	0.12438	0.028852	0.022751	43.955	300840	313290	1827.3	557.99	631.02	118.64	0.000086922	4.20E-06	0.0034857
171.21	294.4	1505.3	0.00066434	72640	72640	418.87	824.43	1217.4	1111.2	-3.909E-07	0.0010882	0.12424	0.028792	0.023595	42.381	301030	313510	1825.7	558.9	631.93	118.75	0.00008652	4.22E-06	0.0035133
171.55	305.88	1504.4	0.00066471	73054	73054	421.28	824.41	1217.4	1109.6	-3.9077E-07	0.0010827	0.1241	0.028733	0.024467	40.871	301220	313720	1824.2	559.8	632.84	118.86	0.00008612	4.24E-06	0.0035409
171.89	317.75	1503.6	0.00066509	73468	73468	423.69	824.4	1217.3	1107.9	-3.9064E-07	0.0010772	0.12395	0.028674	0.025366	39.422	301410	313940	1822.7	560.7	633.74	118.96	0.000085723	4.27E-06	0.0035685
172.23	330.01	1502.7	0.00066546	73882	73882	426.1	824.4	1217.2	1106.3	-3.9051E-07	0.0010718	0.12381	0.028614	0.026294	38.031	301600	314150	1821.1	561.6	634.64	119.07	0.000085329	4.29E-06	0.0035961
172.57	342.69	1501.9	0.00066584	74296	74296	428.5	824.39	1217.2	1104.6	-3.9038E-07	0.0010663	0.12366	0.028555	0.027251	36.696	301790	314370	1819.6	562.49	635.54	119.17	0.000084937	4.31E-06	0.0036237
172.91	355.8	1501	0.00066621	74709	74710	430.89	824.39	1217.1	1103	-3.9025E-07	0.0010609	0.12352	0.028496	0.028238	35.414	301980	314580	1818.2	563.39	636.44	119.28	0.000084547	4.34E-06	0.0036513
173.25	369.34	1500.2	0.00066659	75123	75123	433.28	824.39	1217	1101.3	-3.9011E-07	0.0010556	0.12338	0.028437	0.029255	34.182	302170	314800	1816.7	564.28	637.34	119.38	0.000084161	4.36E-06	0.0036789
173.59	383.32	1499.3	0.00066697	75537	75537	435.67	824.4	1217	1099.6	-3.8997E-07	0.0010502	0.12323	0.028377	0.030304	32.999	302360	315010	1815.2	565.17	638.23	119.49	0.000083776	0.000004384	0.0037065
173.93	397.77	1498.5	0.00066734	75951	75951	438.05	824.4	1216.9	1098	-3.8983E-07	0.0010449	0.12309	0.028318	0.031385	31.862	302560	315230	1813.8	566.05	639.13	119.59	0.000083395	4.41E-06	0.0037341
174.27	412.69	1497.6	0.00066772	76364	76365	440.43	824.41	1216.9	1096.3	-3.8968E-07	0.0010397	0.12294	0.028259	0.032499	30.77	302750	315450	1812.3	566.94	640.02	119.7	0.000083015	4.43E-06	0.0037617
174.61	428.09	1496.8	0.0006681	76778	76778	442.8	824.42	1216.8	1094.7	-3.8954E-07	0.0010344	0.1228	0.0282	0.033647	29.72	302940	315660	1810.9	567.82	640.9	119.8	0.000082638	4.45E-06	0.0037893
174.95	444	1495.9	0.00066848	77192	77192	445.17	824.43	1216.8	1093.1	-3.8939E-07	0.0010292	0.12266	0.028141	0.03483	28.711	303130	315880	1809.5	568.7	641.79	119.9	0.000082264	4.48E-06	0.0038169
175.29	460.41	1495.1	0.00066885	77606	77606	447.53	824.45	1216.8	1091.4	-3.8924E-07	0.001024	0.12251	0.028082	0.036048	27.74	303330	316100	1808.1	569.58	642.67	120.01	0.000081891	4.50E-06	0.0038445
175.63	477.35	1494.2	0.00066923	78019	78020	449.89	824.47	1216.7	1089.8	-3.8909E-07	0.0010189	0.12237	0.028023	0.037303	26.807	303520	316320	1806.7	570.46	643.56	120.11	0.000081522	4.52E-06	0.0038721
175.97	494.83	1493.4	0.00066961	78433	78433	452.24	824.49	1216.7	1088.1	-3.8893E-07	0.0010137	0.12222	0.027964	0.038595	25.91	303710	316530	1805.3	571.33	644.44	120.22	0.000081154	4.55E-06	0.0038997
176.31	512.87	1492.6	0.00066999	78847	78847	454.59	824.51	1216.7	1086.5	-3.8877E-07	0.0010086	0.12208	0.027905	0.039926	25.046	303910	316750	1803.9	572.2	645.32	120.32	0.000080789	4.57E-06	0.0039272
176.65	531.48	1491.7	0.00067037	79260	79261	456.93	824.54	1216.7	1084.8	-3.8861E-07	0.0010036	0.12194	0.027846	0.041295	24.216	304100	316970	1802.6	573.07	646.19	120.42	0.000080426	4.59E-06	0.0039548
176.99	550.66	1490.9	0.00067075	79674	79674	459.27	824.57	1216.6	1083.2	-3.8845E-07	0.00099854	0.12179	0.027787	0.042705	23.416	304300	317190	1801.2	573.94	647.07	120.53	0.000080065	4.62E-06	0.0039824
177.33	570.45	1490	0.00067113	80088	80088	461.61	824.6	1216.6	1081.5	-3.8829E-07	0.00099353	0.12165	0.027728	0.044156	22.647	304490	317410	1799.9	574.81	647.94	120.63	0.000079706	4.64E-06	0.00401
177.67	590.85	1489.2	0.00067151	80501	80502	463.94	824.63	1216.6	1079.9	-3.8812E-07	0.00098854	0.1215	0.027669	0.045648	21.907	304690	317630	1798.6	575.67	648.81	120.74	0.00007935	4.66E-06	0.0040376
178.01	611.89	1488.3	0.0006719	80915	80915	466.26	824.67	1216.6	1078.3	-3.8795E-07	0.00098359	0.12136	0.027611	0.047184	21.194	304880	317850	1797.3	576.53	649.68	120.84	0.000078996	4.69E-06	0.0040652
178.35	633.57	1487.5	0.00067228	81329	81329	468.58	824.71	1216.6	1076.6	-3.8778E-07	0.00097866	0.12121	0.027552	0.048764	20.507	305080	318070	1796	577.39	650.55	120.94	0.000078644	4.71E-06	0.0040927
178.69	655.91	1486.6	0.00067266	81742	81743	470.9	824.75	1216.6	1075	-3.876E-07	0.00097377	0.12107	0.027493	0.050389	19.846	305270	318290	1794.7	578.25	651.41	121.04	0.000078294	4.73E-06	0.0041203
179.03	678.93	1485.8	0.00067304	82156	82156	473.21	824.79	1216.6	1073.3	-3.8743E-07	0.00096889	0.12093	0.027434	0.05206	19.209	305470	318510	1793.4	579.1	652.27	121.15	0.000077946	4.76E-06	0.0041479
179.37	702.65	1484.9	0.00067343	82569	82570	475.52	824.83	1216.6	1071.7	-3.8725E-07	0.00096405	0.12078	0.027376	0.053778	18.595	305660	318730	1792.1	579.96	653.13	121.25	0.000077601	4.78E-06	0.0041755
179.71	727.09	1484.1	0.00067381	82983	82984	477.83	824.88	1216.6	1070.1	-3.8707E-07	0.00095923	0.12064	0.027317	0.055544	18.004	305860	318950	1790.9	580.81	653.99	121.35	0.000077257	4.80E-06	0.0042031
180.05	752.25	1483.3	0.00067419	83397	83397	480.12	824.93	1216.6	1068.4	-3.8689E-07	0.00095444	0.12049	0.027258	0.057359	17.434	306060	319170	1789.6	581.66	654.85	121.46	0.000076916	4.83E-06	0.0042306
180.39	778.17	1482.4	0.00067458	83810	83811	482.42	824.98	1216.6	1066.8	-3.867E-07	0.00094968	0.12035	0.0272	0.059225	16.885	306250	319390	1788.4	582.51	655.71	121.56	0.000076576	4.85E-06	0.0042582
180.73	804.86	1481.6	0.00067496	84224	84225	484.71	825.04	1216.6	1065.2	-3.8651E-07	0.00094494	0.1202	0.027141	0.061143	16.355	306450	319620	1787.2	583.35	656.56	121.66	0.000076239	0.000004873	0.0042858
181.07	832.33	1480.7	0.00067535	84638	84638	487	825.09	1216.7	1063.5	-3.8632E-07	0.00094023	0.12006	0.027083	0.063113	15.845	306650	319840	1785.9	584.19	657.41	121.76	0.000075903	4.90E-06	0.0043133
181.41	860.61	1479.9	0.00067573	85051	85052	489.28	825.15	1216.7	1061.9	-3.8613E-07	0.00093555	0.11992	0.027024	0.065137	15.352	306850	320060	1784.7	585.04	658.26	121.86	0.00007557	4.92E-06	0.0043409
181.75	889.72	1479	0.00067612	85465	85466	491.56	825.21	1216.7	1060.3	-3.8593E-07	0.00093089	0.11977	0.026965	0.067216	14.877	307050	320280	1783.5	585.88	659.11	121.97	0.000075238	4.94E-06	0.0043685
182.09	919.67	1478.2	0.00067651	85879	85879	493.83	825.27	1216.7	1058.6	-3.8574E-07	0.00092626	0.11963	0.026907	0.069351	14.419	307240	320500	1782.3	586.71	659.96	122.07	0.000074909	4.97E-06	0.004396
182.43	950.49	1477.3	0.00067689	86292	86293	496.1	825.34	1216.8	1057	-3.8554E-07	0.00092165	0.11948	0.026849	0.071544	13.977	307440	320730	1781.2	587.55	660.8	122.17	0.000074581	4.99E-06	0.0044236
182.77	982.2	1476.5	0.00067728	86706	86707	498.37	825.41	1216.8	1055.4	-3.8534E-07	0.00091707	0.11934	0.02679	0.073795	13.551	307640	320950	1780	588.38	661.65	122.27	0.000074255	5.01E-06	0.0044511
183.11	1014.8	1475.6	0.00067767	87120	87120	500.63	825.47	1216.8	1053.7	-3.8513E-07	0.00091251	0.11919	0.026732	0.076107	13.139	307840	321170	1778.8	589.21	662.49	122.37	0.000073931	5.03E-06	0.0044787
183.45	1048.4	1474.8	0.00067806	87534	87534	502.89	825.55	1216.9	1052.1	-3.8493E-07	0.00090798	0.11905	0.026673	0.078479	12.742	308040	321400	1777.7	590.04	663.33	122.47	0.000073609	5.06E-06	0.0045063
183.79	1082.9	1474	0.00067845	87947	87948	505.14	825.62	1216.9	1050.5	-3.8472E-07	0.00090348	0.11891	0.026615	0.080914	12.359	308240	321620	1776.6	590.87	664.17	122.57	0.000073289	5.08E-06	0.0045338
184.13	1118.3	1473.1	0.00067884	88361	88362	507.39	825.69	1217	1048.8	-3.8451E-07	0.000899	0.11876	0.026557	0.083413	11.989	308440	321850	1775.4	591.7	665.01	122.67	0.000072971	0.000005104	0.0045614
184.47	1154.8	1472.3	0.00067923	88775	88776	509.63	825.77	1217	1047.2	-3.8429E-07	0.00089454	0.11862	0.026498	0.085977	11.631	308640	322070	1774.3	592.52	665.84	122.77	0.000072654	0.000005127	0.0045889
184.81	1192.3	1471.4	0.00067962	89189	89189	511.87	825.85	1217.1	1045.6	-3.8408E-07	0.00089011	0.11847	0.02644	0.088608	11.286	308840	322300	1773.2	593.34	666.67	122.87	0.000072339	0.00000515	0.0046165
185.15	1230.8	1470.6	0.00068001	89602	89603	514.11	825.93	1217.1	1044	-3.8386E-07	0.0008857	0.11833	0.026382	0.091306	10.952	309040	322520	1772.1	594.16	667.51	122.97	0.000072026	0.000005173	0.004644
185.49	1270.4	1469.7	0.0006804	90016	90017	516.34	826.02	1217.2	1042.3	-3.8364E-07	0.00088132	0.11819	0.026324	0.094074	10.63	309240	322750	1771	594.98	668.34	123.08	0.000071715	0.000005196	0.0046715
185.83	1311.1	1468.9	0.00068079	90430	90431	518.57	826.1	1217.2	1040.7	-3.8341E-07	0.00087696	0.11804	0.026265	0.096913	10.319	309440	322970	1769.9	595.8	669.16	123.18	0.000071406	0.000005219	0.0046991
186.17	1352.9	1468	0.00068118	90844	90845	520.8	826.19	1217.3	1039.1	-3.8319E-07	0.00087262	0.1179	0.026207	0.099824	10.018	309640	323200	1768.9	596.61	669.99	123.27	0.000071098	5.24E-06	0.0047266
186.51	1395.8	1467.2	0.00068157	91258	91259	523.02	826.28	1217.4	1037.5	-3.8296E-07	0.00086831	0.11775	0.026149	0.10281	9.7269	309850	323420	1767.8	597.42	670.82	123.37	0.000070792	5.26E-06	0.0047542
186.85	1439.9	1466.3	0.00068197	91672	91673	525.24	826.37	1217.4	1035.9	-3.8273E-07	0.00086402	0.11761	0.026091	0.10587	9.4458	310050	323650	1766.7	598.23	671.64	123.47	0.000070488	5.29E-06	0.0047817
187.19	1485.2	1465.5	0.00068236	92086	92087	527.45	826.47	1217.5	1034.2	-3.825E-07	0.00085976	0.11747	0.026033	0.109	9.174	310250	323880	1765.7	599.04	672.46	123.57	0.000070186	5.31E-06	0.0048092
187.53	1531.7	1464.7	0.00068275	92500	92501	529.66	826.56	1217.6	1032.6	-3.8226E-07	0.00085552	0.11732	0.025975	0.11222	8.9113	310450	324100	1764.7	599.85	673.28	123.67	0.000069885	5.33E-06	0.0048367
187.87	1579.5	1463.8	0.00068315	92914	92915	531.87	826.66	1217.7	1031	-3.8202E-07	0.0008513	0.11718	0.025917	0.11551	8.6572	310660	324330	1763.6	600.66	674.1	123.77	0.000069586	5.36E-06	0.0048643
188.21	1628.5	1463	0.00068354	93328	93329	534.07	826.76	1217.8	1029.4	-3.8178E-07	0.0008471	0.11703	0.025859	0.11889	8.4114	310860	324560	1762.6	601.46	674.92	123.87	0.000069288	5.38E-06	0.0048918
188.55	1678.8	1462.1	0.00068394	93742	93743	536.27	826.86	1217.8	1027.8	-3.8154E-07	0.00084293	0.11689	0.025801	0.12234	8.1737	311060	324780	1761.6	602.26	675.74	123.97	0.000068992	5.40E-06	0.0049193
188.89	1730.4	1461.3	0.00068433	94156	94157	538.46	826.96	1217.9	1026.1	-3.813E-07	0.00083878	0.11675	0.025743	0.12589	7.9437	311260	325010	1760.6	603.06	676.55	124.07	0.000068698	5.43E-06	0.0049468
189.23	1783.4	1460.4	0.00068473	94570	94571	540.65	827.07	1218	1024.5	-3.8105E-07	0.00083465	0.1166	0.025685	0.12951	7.7212	311470	325240	1759.6	603.86	677.37	124.17	0.000068405	0.000005448	0.0049743
189.57	1837.8	1459.6	0.00068513	94984	94985	542.84	827.17	1218.1	1022.9	-3.808E-07	0.00083055	0.11646	0.025627	0.13323	7.5058	311670	325470	1758.6	604.66	678.18	124.26	0.000068114	5.47E-06	0.0050019
189.91	1893.6	1458.7	0.00068552	95398	95399	545.02	827.28	1218.2	1021.3	-3.8055E-07	0.00082647	0.11631	0.02557	0.13704	7.2974	311880	325690	1757.7	605.45	678.99	124.36	0.000067825	5.49E-06	0.0050294
190.25	1950.8	1457.9	0.00068592	95812	95814	547.2	827.39	1218.3	1019.7	-3.8029E-07	0.00082241	0.11617	0.025512	0.14093	7.0957	312080	325920	1756.7	606.25	679.8	124.46	0.000067537	5.52E-06	0.0050569
190.59	2009.5	1457.1	0.00068632	96227	96228	549.37	827.51	1218.4	1018.1	-3.8004E-07	0.00081837	0.11603	0.025454	0.14492	6.9004	312280	326150	1755.8	607.04	680.61	124.56	0.000067251	5.54E-06	0.0050844
190.93	2069.7	1456.2	0.00068672	96641	96642	551.55	827.62	1218.5	1016.5	-3.7978E-07	0.00081435	0.11588	0.025396	0.149	6.7113	312490	326380	1754.8	607.83	681.41	124.66	0.000066966	0.000005562	0.0051119
191.27	2131.5	1455.4	0.00068712	97055	97057	553.71	827.74	1218.6	1014.8	-3.7952E-07	0.00081036	0.11574	0.025339	0.15318	6.5281	312690	326610	1753.9	608.62	682.22	124.75	0.000066683	5.58E-06	0.0051394
191.61	2194.8	1454.5	0.00068752	97469	97471	555.88	827.86	1218.7	1013.2	-3.7925E-07	0.00080638	0.1156	0.025281	0.15746	6.3508	312900	326840	1752.9	609.4	683.02	124.85	0.000066401	5.61E-06	0.0051669
191.95	2259.7	1453.7	0.00068792	97884	97885	558.04	827.98	1218.8	1011.6	-3.7899E-07	0.00080243	0.11545	0.025223	0.16184	6.179	313110	327070	1752	610.19	683.83	124.95	0.000066121	5.63E-06	0.0051943
192.29	2326.2	1452.8	0.00068832	98298	98300	560.2	828.1	1219	1010	-3.7872E-07	0.0007985	0.11531	0.025166	0.16632	6.0126	313310	327300	1751.1	610.97	684.63	125.04	0.000065843	0.000005653	0.0052218
192.63	2394.4	1452	0.00068872	98713	98714	562.35	828.22	1219.1	1008.4	-3.7845E-07	0.00079459	0.11516	0.025108	0.1709	5.8514	313520	327530	1750.2	611.75	685.43	125.14	0.000065566	5.68E-06	0.0052493
192.97	2464.3	1451.1	0.00068912	99127	99129	564.5	828.35	1219.2	1006.8	-3.7817E-07	0.0007907	0.11502	0.02505	0.17559	5.6952	313720	327760	1749.3	612.53	686.23	125.24	0.00006529	5.70E-06	0.0052768
193.31	2535.9	1450.3	0.00068952	99542	99543	566.64	828.47	1219.3	1005.2	-3.7789E-07	0.00078683	0.11488	0.024993	0.18038	5.5438	313930	327990	1748.4	613.31	687.03	125.33	0.000065016	5.72E-06	0.0053043
193.65	2609.3	1449.4	0.00068992	99956	99958	568.79	828.6	1219.5	1003.6	-3.7762E-07	0.00078298	0.11473	0.024935	0.18529	5.3971	314140	328220	1747.5	614.09	687.82	125.43	0.000064743	5.74E-06	0.0053317
193.99	2684.4	1448.6	0.00069033	100370	100370	570.93	828.73	1219.6	1002	-3.7733E-07	0.00077916	0.11459	0.024878	0.1903	5.2548	314340	328450	1746.6	614.86	688.62	125.53	0.000064472	5.77E-06	0.0053592
194.33	2761.4	1447.7	0.00069073	100790	100790	573.06	828.86	1219.7	1000.4	-3.7705E-07	0.00077535	0.11445	0.02482	0.19543	5.1169	314550	328680	1745.8	615.64	689.41	125.62	0.000064202	5.79E-06	0.0053867
194.67	2840.3	1446.9	0.00069113	101200	101200	575.19	829	1219.8	998.78	-3.7676E-07	0.00077157	0.1143	0.024763	0.20067	4.9832	314760	328910	1744.9	616.41	690.21	125.72	0.000063934	5.81E-06	0.0054141
195.01	2921.1	1446.1	0.00069154	101610	101620	577.32	829.13	1220	997.18	-3.7648E-07	0.0007678	0.11416	0.024705	0.20603	4.8536	314960	329140	1744.1	617.18	691	125.81	0.000063667	5.83E-06	0.0054416
195.35	3003.8	1445.2	0.00069194	102030	102030	579.45	829.27	1220.1	995.58	-3.7618E-07	0.00076406	0.11402	0.024648	0.21151	4.7279	315170	329370	1743.2	617.95	691.79	125.91	0.000063401	0.000005857	0.0054691
195.69	3088.5	1444.4	0.00069235	102440	102450	581.57	829.41	1220.3	993.98	-3.7589E-07	0.00076033	0.11387	0.024591	0.21711	4.6059	315380	329600	1742.4	618.72	692.58	126	0.000063137	5.88E-06	0.0054965
196.03	3175.2	1443.5	0.00069275	102860	102860	583.69	829.55	1220.4	992.38	-3.7559E-07	0.00075663	0.11373	0.024533	0.22284	4.4876	315590	329840	1741.5	619.48	693.37	126.1	0.000062875	5.90E-06	0.0055239
196.37	3264	1442.7	0.00069316	103270	103280	585.8	829.69	1220.6	990.78	-3.7529E-07	0.00075294	0.11359	0.024476	0.22868	4.3728	315800	330070	1740.7	620.25	694.16	126.19	0.000062613	5.92E-06	0.0055514
196.71	3354.9	1441.8	0.00069357	103690	103690	587.91	829.83	1220.7	989.18	-3.7499E-07	0.00074927	0.11344	0.024419	0.23466	4.2615	316000	330300	1739.9	621.01	694.94	126.29	0.000062353	5.95E-06	0.0055788
197.05	3447.9	1441	0.00069398	104100	104110	590.02	829.98	1220.9	987.58	-3.7469E-07	0.00074563	0.1133	0.024362	0.24077	4.1534	316210	330530	1739.1	621.77	695.73	126.38	0.000062095	5.97E-06	0.0056063
197.39	3543	1440.1	0.00069438	104520	104520	592.13	830.12	1221	985.99	-3.7438E-07	0.000742	0.11316	0.024304	0.247	4.0485	316420	330770	1738.3	622.53	696.51	126.47	0.000061838	5.99E-06	0.0056337
197.73	3640.4	1439.3	0.00069479	104930	104940	594.23	830.27	1221.2	984.39	-3.7407E-07	0.00073839	0.11301	0.024247	0.25338	3.9467	316630	331000	1737.5	623.29	697.3	126.57	0.000061582	6.01E-06	0.0056611
198.07	3740.1	1438.4	0.0006952	105350	105350	596.33	830.42	1221.3	982.79	-3.7376E-07	0.0007348	0.11287	0.02419	0.25988	3.8479	316840	331230	1736.7	624.05	698.08	126.66	0.000061327	6.04E-06	0.0056885
198.41	3842	1437.6	0.00069561	105770	105770	598.42	830.57	1221.5	981.2	-3.7345E-07	0.00073123	0.11273	0.024133	0.26653	3.7519	317050	331460	1735.9	624.81	698.86	126.76	0.000061074	6.06E-06	0.005716
198.75	3946.3	1436.7	0.00069602	106180	106180	600.51	830.73	1221.7	979.61	-3.7313E-07	0.00072768	0.11259	0.024076	0.27331	3.6588	317260	331700	1735.2	625.56	699.64	126.85	0.000060822	6.08E-06	0.0057434
199.09	4052.9	1435.9	0.00069643	106600	106600	602.6	830.88	1221.8	978.01	-3.7281E-07	0.00072415	0.11244	0.024019	0.28024	3.5683	317470	331930	1734.4	626.31	700.42	126.94	0.000060572	6.10E-06	0.0057708
199.43	4162	1435	0.00069685	107010	107010	604.69	831.04	1222	976.42	-3.7249E-07	0.00072064	0.1123	0.023962	0.28732	3.4805	317680	332170	1733.7	627.07	701.2	127.03	0.000060322	6.13E-06	0.0057982
199.77	4273.6	1434.2	0.00069726	107430	107430	606.77	831.19	1222.2	974.83	-3.7216E-07	0.00071714	0.11216	0.023905	0.29454	3.3951	317890	332400	1732.9	627.82	701.98	127.13	0.000060074	6.15E-06	0.0058256
200.11	4387.6	1433.3	0.00069767	107840	107850	608.85	831.35	1222.4	973.24	-3.7184E-07	0.00071367	0.11201	0.023848	0.30191	3.3122	318100	332630	1732.2	628.57	702.76	127.22	0.000059828	6.17E-06	0.005853
200.45	4504.2	1432.5	0.00069808	108260	108260	610.92	831.51	1222.6	971.65	-3.7151E-07	0.00071021	0.11187	0.023791	0.30944	3.2317	318310	332870	1731.4	629.31	703.53	127.31	0.000059582	6.19E-06	0.0058804
200.79	4623.5	1431.6	0.0006985	108670	108680	612.99	831.68	1222.7	970.06	-3.7117E-07	0.00070677	0.11173	0.023734	0.31712	3.1534	318520	333100	1730.7	630.06	704.31	127.4	0.000059338	6.22E-06	0.0059078
201.13	4745.3	1430.8	0.00069891	109090	109090	615.06	831.84	1222.9	968.47	-3.7084E-07	0.00070335	0.11159	0.023677	0.32495	3.0774	318730	333340	1730	630.81	705.08	127.49	0.000059095	6.24E-06	0.0059352
201.47	4869.9	1429.9	0.00069933	109510	109510	617.13	832	1223.1	966.88	-3.705E-07	0.00069995	0.11144	0.02362	0.33295	3.0035	318940	333570	1729.3	631.55	705.86	127.59	0.000058854	6.26E-06	0.0059625
201.81	4997.2	1429.1	0.00069974	109920	109920	619.19	832.17	1223.3	965.3	-3.7016E-07	0.00069656	0.1113	0.023564	0.3411	2.9317	319160	333810	1728.6	632.29	706.63	127.68	0.000058613	0.000006284	0.0059899
202.15	5127.3	1428.2	0.00070016	110340	110340	621.25	832.34	1223.5	963.71	-3.6982E-07	0.00069319	0.11116	0.023507	0.34943	2.8618	319370	334040	1727.9	633.04	707.4	127.77	0.000058374	6.31E-06	0.0060173
202.49	5260.2	1427.4	0.00070058	110750	110760	623.31	832.51	1223.7	962.13	-3.6947E-07	0.00068984	0.11102	0.02345	0.35792	2.7939	319580	334280	1727.2	633.78	708.17	127.86	0.000058136	6.33E-06	0.0060446
202.83	5396	1426.5	0.00070099	111170	111170	625.36	832.68	1223.9	960.54	-3.6912E-07	0.00068651	0.11087	0.023393	0.36658	2.728	319790	334510	1726.5	634.52	708.95	127.95	0.0000579	0.000006351	0.006072
203.17	5534.8	1425.7	0.00070141	111590	111590	627.41	832.85	1224.1	958.96	-3.6877E-07	0.0006832	0.11073	0.023337	0.37541	2.6638	320000	334750	1725.8	635.25	709.72	128.04	0.000057664	6.37E-06	0.0060993
203.51	5676.5	1424.8	0.00070183	112000	112010	629.45	833.02	1224.3	957.38	-3.6842E-07	0.0006799	0.11059	0.02328	0.38441	2.6014	320220	334980	1725.1	635.99	710.49	128.13	0.00005743	6.40E-06	0.0061267
203.85	5821.3	1424	0.00070225	112420	112420	631.5	833.2	1224.5	955.79	-3.6806E-07	0.00067662	0.11045	0.023223	0.3936	2.5407	320430	335220	1724.4	636.73	711.26	128.22	0.000057197	6.42E-06	0.006154
204.19	5969.1	1423.1	0.00070267	112830	112840	633.54	833.37	1224.7	954.21	-3.677E-07	0.00067336	0.1103	0.023167	0.40296	2.4816	320640	335450	1723.8	637.46	712.02	128.31	0.000056965	6.44E-06	0.0061814
204.53	6120.1	1422.3	0.00070309	113250	113250	635.58	833.55	1224.9	952.63	-3.6734E-07	0.00067011	0.11016	0.02311	0.41251	2.4242	320850	335690	1723.1	638.19	712.79	128.4	0.000056735	6.46E-06	0.0062087
204.87	6274.3	1421.4	0.00070351	113670	113670	637.61	833.73	1225.1	951.05	-3.6698E-07	0.00066688	0.11002	0.023054	0.42224	2.3683	321070	335930	1722.5	638.93	713.56	128.49	0.000056505	6.48E-06	0.006236
205.21	6431.7	1420.6	0.00070393	114080	114090	639.64	833.91	1225.3	949.47	-3.6661E-07	0.00066367	0.10988	0.022997	0.43216	2.314	321280	336160	1721.8	639.66	714.33	128.58	0.000056277	6.51E-06	0.0062634
205.55	6592.4	1419.7	0.00070435	114500	114500	641.67	834.09	1225.6	947.89	-3.6624E-07	0.00066048	0.10974	0.022941	0.44227	2.261	321490	336400	1721.2	640.39	715.09	128.67	0.00005605	6.53E-06	0.0062907
205.89	6756.5	1418.9	0.00070478	114920	114920	643.7	834.28	1225.8	946.32	-3.6587E-07	0.0006573	0.10959	0.022884	0.45258	2.2096	321710	336640	1720.6	641.12	715.86	128.75	0.000055824	6.55E-06	0.006318
206.23	6924	1418	0.0007052	115330	115340	645.72	834.46	1226	944.74	-3.6549E-07	0.00065414	0.10945	0.022828	0.46308	2.1594	321920	336870	1719.9	641.84	716.62	128.84	0.000055599	6.57E-06	0.0063453
206.57	7094.9	1417.2	0.00070562	115750	115760	647.74	834.65	1226.2	943.16	-3.6511E-07	0.00065099	0.10931	0.022771	0.47378	2.1107	322130	337110	1719.3	642.57	717.39	128.93	0.000055376	6.60E-06	0.0063726
206.91	7269.3	1416.3	0.00070605	116170	116170	649.76	834.83	1226.5	941.59	-3.6473E-07	0.00064786	0.10917	0.022715	0.48469	2.0632	322350	337350	1718.7	643.29	718.15	129.02	0.000055153	6.62E-06	0.0063999
207.25	7447.3	1415.5	0.00070647	116580	116590	651.77	835.02	1226.7	940.01	-3.6435E-07	0.00064475	0.10903	0.022659	0.4958	2.017	322560	337580	1718.1	644.02	718.92	129.11	0.000054932	6.64E-06	0.0064272
207.59	7629	1414.6	0.0007069	117000	117010	653.78	835.21	1226.9	938.44	-3.6396E-07	0.00064166	0.10888	0.022603	0.50711	1.9719	322780	337820	1717.5	644.74	719.68	129.19	0.000054712	6.66E-06	0.0064544
207.93	7814.3	1413.8	0.00070733	117420	117420	655.79	835.4	1227.2	936.86	-3.6357E-07	0.00063858	0.10874	0.022546	0.51864	1.9281	322990	338060	1716.9	645.47	720.44	129.28	0.000054493	6.68E-06	0.0064817
208.27	8003.4	1412.9	0.00070775	117840	117840	657.79	835.59	1227.4	935.29	-3.6318E-07	0.00063551	0.1086	0.02249	0.53038	1.8854	323210	338300	1716.3	646.19	721.21	129.37	0.000054275	6.71E-06	0.006509
208.61	8196.2	1412.1	0.00070818	118250	118260	659.79	835.79	1227.6	933.72	-3.6278E-07	0.00063246	0.10846	0.022434	0.54234	1.8438	323420	338530	1715.7	646.91	721.97	129.45	0.000054058	6.73E-06	0.0065363
208.95	8393	1411.2	0.00070861	118670	118680	661.79	835.98	1227.9	932.15	-3.6238E-07	0.00062943	0.10832	0.022378	0.55452	1.8033	323640	338770	1715.1	647.63	722.73	129.54	0.000053842	6.75E-06	0.0065635
209.29	8593.6	1410.4	0.00070904	119090	119090	663.79	836.18	1228.1	930.58	-3.6198E-07	0.00062642	0.10818	0.022322	0.56693	1.7639	323850	339010	1714.6	648.35	723.49	129.63	0.000053627	6.77E-06	0.0065908
209.63	8798.2	1409.5	0.00070947	119510	119510	665.78	836.37	1228.4	929.01	-3.6158E-07	0.00062342	0.10804	0.022265	0.57956	1.7255	324070	339250	1714	649.06	724.25	129.71	0.000053414	6.79E-06	0.006618
209.97	9006.9	1408.6	0.0007099	119920	119930	667.77	836.57	1228.6	927.44	-3.6117E-07	0.00062043	0.10789	0.022209	0.59241	1.688	324280	339490	1713.4	649.78	725.01	129.8	0.000053201	6.82E-06	0.0066452
210.31	9219.7	1407.8	0.00071033	120340	120350	669.76	836.77	1228.9	925.87	-3.6076E-07	0.00061746	0.10775	0.022153	0.6055	1.6515	324500	339730	1712.9	650.49	725.77	129.88	0.00005299	6.84E-06	0.0066725
210.65	9436.6	1406.9	0.00071076	120760	120770	671.75	836.97	1229.1	924.3	-3.6035E-07	0.00061451	0.10761	0.022097	0.61883	1.616	324710	339960	1712.3	651.21	726.54	129.97	0.00005278	6.86E-06	0.0066997
210.99	9657.8	1406.1	0.0007112	121180	121180	673.73	837.17	1229.4	922.74	-3.5993E-07	0.00061157	0.10747	0.022041	0.63239	1.5813	324930	340200	1711.8	651.92	727.3	130.05	0.000052571	6.88E-06	0.0067269
211.33	9883.2	1405.2	0.00071163	121590	121600	675.71	837.37	1229.7	921.17	-3.5952E-07	0.00060864	0.10733	0.021985	0.6462	1.5475	325150	340440	1711.2	652.64	728.06	130.14	0.000052362	6.90E-06	0.0067541
211.67	10113	1404.4	0.00071206	122010	122020	677.69	837.58	1229.9	919.61	-3.591E-07	0.00060574	0.10719	0.021929	0.66025	1.5146	325360	340680	1710.7	653.35	728.82	130.22	0.000052155	6.93E-06	0.0067814
212.01	10347	1403.5	0.0007125	122430	122440	679.66	837.78	1230.2	918.04	-3.5867E-07	0.00060284	0.10705	0.021874	0.67455	1.4825	325580	340920	1710.2	654.06	729.58	130.3	0.000051949	6.95E-06	0.0068086
212.35	10586	1402.7	0.00071293	122850	122860	681.63	837.99	1230.5	916.48	-3.5824E-07	0.00059996	0.10691	0.021818	0.6891	1.4512	325800	341160	1709.7	654.77	730.33	130.39	0.000051744	6.97E-06	0.0068357
212.69	10829	1401.8	0.00071337	123270	123270	683.6	838.2	1230.7	914.91	-3.5781E-07	0.0005971	0.10677	0.021762	0.70391	1.4206	326010	341400	1709.1	655.48	731.09	130.47	0.00005154	6.99E-06	0.0068629
213.03	11077	1400.9	0.0007138	123690	123690	685.56	838.41	1231	913.35	-3.5738E-07	0.00059425	0.10663	0.021706	0.71897	1.3909	326230	341640	1708.6	656.19	731.85	130.55	0.000051337	7.01E-06	0.0068901
213.37	11330	1400.1	0.00071424	124100	124110	687.53	838.62	1231.3	911.79	-3.5694E-07	0.00059142	0.10649	0.02165	0.7343	1.3618	326450	341880	1708.1	656.9	732.61	130.64	0.000051136	7.04E-06	0.0069173
213.71	11587	1399.2	0.00071468	124520	124530	689.49	838.83	1231.6	910.23	-3.5651E-07	0.0005886	0.10635	0.021595	0.74989	1.3335	326660	342120	1707.6	657.6	733.37	130.72	0.000050935	7.06E-06	0.0069445
214.05	11849	1398.4	0.00071512	124940	124950	691.45	839.04	1231.8	908.67	-3.5606E-07	0.00058579	0.1062	0.021539	0.76575	1.3059	326880	342360	1707.1	658.31	734.13	130.8	0.000050735	7.08E-06	0.0069716
214.39	12116	1397.5	0.00071556	125360	125370	693.4	839.25	1232.1	907.11	-3.5562E-07	0.000583	0.10606	0.021483	0.78188	1.279	327100	342600	1706.6	659.02	734.89	130.88	0.000050536	7.10E-06	0.0069988
214.73	12388	1396.7	0.000716	125780	125790	695.35	839.47	1232.4	905.55	-3.5517E-07	0.00058023	0.10592	0.021428	0.79829	1.2527	327320	342840	1706.1	659.72	735.65	130.96	0.000050338	7.12E-06	0.0070259
215.07	12665	1395.8	0.00071644	126200	126210	697.3	839.68	1232.7	903.99	-3.5472E-07	0.00057747	0.10578	0.021372	0.81497	1.227	327540	343080	1705.7	660.42	736.41	131.05	0.000050142	7.15E-06	0.0070531
215.41	12947	1394.9	0.00071688	126620	126630	699.25	839.9	1233	902.43	-3.5426E-07	0.00057472	0.10564	0.021316	0.83194	1.202	327750	343320	1705.2	661.13	737.17	131.13	0.000049946	7.17E-06	0.0070802
215.75	13235	1394.1	0.00071732	127040	127050	701.19	840.12	1233.3	900.88	-3.5381E-07	0.00057199	0.1055	0.021261	0.84919	1.1776	327970	343560	1704.7	661.83	737.93	131.21	0.000049751	7.19E-06	0.0071073
216.09	13527	1393.2	0.00071776	127460	127470	703.14	840.33	1233.6	899.32	-3.5335E-07	0.00056927	0.10536	0.021205	0.86674	1.1538	328190	343800	1704.3	662.53	738.69	131.29	0.000049557	7.21E-06	0.0071344
216.43	13825	1392.4	0.00071821	127870	127880	705.08	840.55	1233.9	897.76	-3.5288E-07	0.00056656	0.10522	0.02115	0.88457	1.1305	328410	344040	1703.8	663.23	739.45	131.37	0.000049364	7.23E-06	0.0071615
216.77	14128	1391.5	0.00071865	128290	128300	707.01	840.77	1234.2	896.21	-3.5242E-07	0.00056387	0.10508	0.021094	0.9027	1.1078	328630	344280	1703.3	663.94	740.21	131.45	0.000049173	7.25E-06	0.0071886
217.11	14437	1390.6	0.0007191	128710	128720	708.95	841	1234.5	894.65	-3.5195E-07	0.00056119	0.10494	0.021039	0.92113	1.0856	328840	344520	1702.9	664.64	740.97	131.53	0.000048982	7.28E-06	0.0072157
217.45	14751	1389.8	0.00071954	129130	129140	710.88	841.22	1234.8	893.1	-3.5147E-07	0.00055853	0.1048	0.020984	0.93987	1.064	329060	344760	1702.4	665.33	741.73	131.61	0.000048792	7.30E-06	0.0072428
217.79	15071	1388.9	0.00071999	129550	129560	712.81	841.44	1235.1	891.55	-0.000000351	0.00055588	0.10466	0.020928	0.95891	1.0428	329280	345000	1702	666.03	742.49	131.69	0.000048603	7.32E-06	0.0072699
218.13	15397	1388	0.00072044	129970	129980	714.73	841.67	1235.4	889.99	-3.5052E-07	0.00055324	0.10452	0.020873	0.97827	1.0222	329500	345240	1701.6	666.73	743.25	131.76	0.000048415	7.34E-06	0.007297
218.47	15728	1387.2	0.00072089	130390	130400	716.66	841.89	1235.7	888.44	-3.5003E-07	0.00055062	0.10438	0.020818	0.99794	1.0021	329720	345480	1701.1	667.43	744.01	131.84	0.000048228	7.36E-06	0.0073241
218.81	16065	1386.3	0.00072133	130810	130820	718.58	842.12	1236	886.89	-3.4955E-07	0.00054801	0.10424	0.020762	1.0179	0.98239	329940	345720	1700.7	668.13	744.77	131.92	0.000048042	0.000007385	0.0073511
219.15	16409	1385.5	0.00072178	131230	131250	720.5	842.35	1236.3	885.34	-3.4906E-07	0.00054541	0.10411	0.020707	1.0382	0.96317	330160	345960	1700.3	668.82	745.53	132	0.000047857	7.41E-06	0.0073782
219.49	16758	1384.6	0.00072223	131650	131670	722.41	842.58	1236.7	883.79	-3.4857E-07	0.00054283	0.10397	0.020652	1.0589	0.9444	330380	346200	1699.9	669.52	746.29	132.08	0.000047673	7.43E-06	0.0074052
219.83	17113	1383.7	0.00072269	132070	132090	724.33	842.81	1237	882.24	-3.4807E-07	0.00054026	0.10383	0.020597	1.0798	0.92607	330600	346450	1699.4	670.21	747.05	132.15	0.00004749	7.45E-06	0.0074322
220.17	17474	1382.9	0.00072314	132490	132510	726.24	843.04	1237.3	880.69	-3.4757E-07	0.00053771	0.10369	0.020542	1.1011	0.90815	330820	346690	1699	670.91	747.82	132.23	0.000047307	7.47E-06	0.0074593
220.51	17842	1382	0.00072359	132920	132930	728.15	843.27	1237.6	879.14	-3.4707E-07	0.00053516	0.10355	0.020487	1.1228	0.89065	331040	346930	1698.6	671.6	748.58	132.31	0.000047126	7.49E-06	0.0074863
220.85	18216	1381.1	0.00072404	133340	133350	730.06	843.5	1238	877.6	-3.4656E-07	0.00053263	0.10341	0.020431	1.1448	0.87355	331260	347170	1698.2	672.3	749.34	132.38	0.000046946	0.000007515	0.0075133
221.19	18596	1380.3	0.0007245	133760	133770	731.96	843.74	1238.3	876.05	-3.4606E-07	0.00053011	0.10327	0.020376	1.1671	0.85684	331480	347410	1697.8	672.99	750.1	132.46	0.000046766	7.54E-06	0.0075403
221.53	18983	1379.4	0.00072495	134180	134190	733.86	843.97	1238.6	874.5	-3.4554E-07	0.00052761	0.10313	0.020321	1.1898	0.84051	331700	347650	1697.4	673.68	750.87	132.53	0.000046588	7.56E-06	0.0075673
221.87	19377	1378.5	0.00072541	134600	134610	735.76	844.21	1239	872.96	-3.4503E-07	0.00052512	0.10299	0.020267	1.2128	0.82455	331920	347890	1697.1	674.38	751.63	132.61	0.00004641	7.58E-06	0.0075943
222.21	19777	1377.7	0.00072586	135020	135030	737.66	844.44	1239.3	871.41	-3.4451E-07	0.00052264	0.10285	0.020212	1.2362	0.80895	332140	348140	1696.7	675.07	752.4	132.68	0.000046233	7.60E-06	0.0076213
222.55	20183	1376.8	0.00072632	135440	135460	739.55	844.68	1239.6	869.87	-3.4399E-07	0.00052017	0.10271	0.020157	1.2599	0.7937	332360	348380	1696.3	675.76	753.16	132.76	0.000046057	7.62E-06	0.0076482
222.89	20597	1375.9	0.00072678	135860	135880	741.44	844.92	1240	868.32	-3.4346E-07	0.00051772	0.10258	0.020102	1.284	0.77879	332580	348620	1695.9	676.45	753.93	132.83	0.000045883	7.64E-06	0.0076752
223.23	21018	1375.1	0.00072724	136280	136300	743.33	845.16	1240.3	866.78	-3.4293E-07	0.00051528	0.10244	0.020047	1.3085	0.76422	332800	348860	1695.5	677.14	754.69	132.91	0.000045709	0.000007666	0.0077022
223.57	21445	1374.2	0.0007277	136710	136720	745.22	845.4	1240.7	865.24	-3.424E-07	0.00051285	0.1023	0.019992	1.3334	0.74997	333020	349100	1695.2	677.83	755.46	132.98	0.000045535	7.69E-06	0.0077291
223.91	21880	1373.3	0.00072816	137130	137140	747.11	845.64	1241	863.69	-3.4187E-07	0.00051043	0.10216	0.019937	1.3586	0.73604	333240	349350	1694.8	678.52	756.23	133.05	0.000045363	0.000007709	0.0077561
224.25	22322	1372.5	0.00072862	137550	137570	748.99	845.88	1241.4	862.15	-3.4133E-07	0.00050803	0.10202	0.019883	1.3842	0.72241	333460	349590	1694.5	679.21	756.99	133.13	0.000045192	7.73E-06	0.007783
224.59	22771	1371.6	0.00072908	137970	137990	750.87	846.13	1241.7	860.61	-3.4078E-07	0.00050564	0.10188	0.019828	1.4103	0.70909	333680	349830	1694.1	679.9	757.76	133.2	0.000045021	0.000007752	0.0078099
224.93	23227	1370.7	0.00072955	138390	138410	752.75	846.37	1242.1	859.07	-3.4024E-07	0.00050326	0.10175	0.019773	1.4367	0.69606	333910	350070	1693.8	680.59	758.53	133.27	0.000044852	7.77E-06	0.0078368
225.27	23691	1369.8	0.00073001	138820	138830	754.62	846.61	1242.5	857.53	-3.3969E-07	0.00050089	0.10161	0.019719	1.4635	0.68332	334130	350310	1693.4	681.28	759.3	133.34	0.000044683	7.79E-06	0.0078637
225.61	24162	1369	0.00073047	139240	139260	756.5	846.86	1242.8	855.99	-3.3913E-07	0.00049853	0.10147	0.019664	1.4906	0.67085	334350	350560	1693.1	681.96	760.07	133.41	0.000044515	7.82E-06	0.0078906
225.95	24641	1368.1	0.00073094	139660	139680	758.37	847.11	1243.2	854.45	-3.3858E-07	0.00049619	0.10133	0.01961	1.5182	0.65866	334570	350800	1692.7	682.65	760.84	133.48	0.000044348	7.84E-06	0.0079175
226.29	25128	1367.2	0.00073141	140080	140100	760.24	847.35	1243.6	852.92	-3.3802E-07	0.00049386	0.10119	0.019555	1.5463	0.64673	334790	351040	1692.4	683.34	761.61	133.56	0.000044182	7.86E-06	0.0079444
226.63	25623	1366.4	0.00073187	140510	140520	762.1	847.6	1243.9	851.38	-3.3745E-07	0.00049154	0.10106	0.0195	1.5747	0.63505	335010	351280	1692.1	684.03	762.39	133.63	0.000044017	7.88E-06	0.0079713
226.97	26125	1365.5	0.00073234	140930	140950	763.97	847.85	1244.3	849.84	-3.3688E-07	0.00048923	0.10092	0.019446	1.6035	0.62363	335230	351530	1691.8	684.71	763.16	133.7	0.000043852	7.90E-06	0.0079981
227.31	26636	1364.6	0.00073281	141350	141370	765.83	848.1	1244.7	848.3	-3.3631E-07	0.00048693	0.10078	0.019392	1.6328	0.61246	335460	351770	1691.4	685.4	763.93	133.77	0.000043689	7.92E-06	0.008025
227.65	27154	1363.7	0.00073328	141770	141790	767.69	848.35	1245.1	846.77	-3.3574E-07	0.00048465	0.10064	0.019337	1.6624	0.60152	335680	352010	1691.1	686.09	764.71	133.83	0.000043526	7.94E-06	0.0080518
227.99	27681	1362.9	0.00073375	142200	142220	769.55	848.6	1245.4	845.23	-3.3516E-07	0.00048237	0.1005	0.019283	1.6926	0.59082	335900	352250	1690.8	686.77	765.48	133.9	0.000043364	7.97E-06	0.0080787
228.33	28216	1362	0.00073422	142620	142640	771.4	848.86	1245.8	843.7	-3.3458E-07	0.00048011	0.10037	0.019228	1.7231	0.58034	336120	352500	1690.5	687.46	766.26	133.97	0.000043203	7.99E-06	0.0081055
228.67	28759	1361.1	0.0007347	143040	143070	773.26	849.11	1246.2	842.16	-3.3399E-07	0.00047786	0.10023	0.019174	1.7541	0.57009	336340	352740	1690.2	688.14	767.03	134.04	0.000043043	8.01E-06	0.0081323
229.01	29311	1360.2	0.00073517	143470	143490	775.11	849.36	1246.6	840.63	-3.334E-07	0.00047562	0.10009	0.01912	1.7855	0.56006	336570	352980	1689.9	688.83	767.81	134.11	0.000042883	8.03E-06	0.0081592
229.35	29871	1359.4	0.00073564	143890	143910	776.96	849.62	1247	839.09	-3.3281E-07	0.0004734	0.099956	0.019066	1.8174	0.55023	336790	353230	1689.6	689.52	768.59	134.18	0.000042725	8.05E-06	0.008186
229.69	30440	1358.5	0.00073612	144320	144340	778.8	849.88	1247.4	837.56	-3.3221E-07	0.00047118	0.099818	0.019011	1.8498	0.54061	337010	353470	1689.3	690.2	769.37	134.24	0.000042567	8.07E-06	0.0082128
230.03	31018	1357.6	0.00073659	144740	144760	780.65	850.13	1247.8	836.03	-3.3161E-07	0.00046898	0.099681	0.018957	1.8825	0.53119	337230	353710	1689	690.89	770.15	134.31	0.00004241	8.09E-06	0.0082395
230.37	31605	1356.7	0.00073707	145160	145190	782.49	850.39	1248.2	834.5	-3.3101E-07	0.00046678	0.099544	0.018903	1.9158	0.52197	337460	353950	1688.7	691.57	770.93	134.38	0.000042254	8.12E-06	0.0082663
230.71	32200	1355.8	0.00073755	145590	145610	784.33	850.65	1248.6	832.96	-3.304E-07	0.0004646	0.099407	0.018849	1.9495	0.51294	337680	354200	1688.4	692.25	771.72	134.44	0.000042099	8.14E-06	0.0082931
231.05	32805	1355	0.00073803	146010	146040	786.17	850.91	1249	831.43	-3.2979E-07	0.00046243	0.099271	0.018795	1.9837	0.5041	337900	354440	1688.1	692.94	772.5	134.51	0.000041944	0.000008158	0.0083199
231.39	33419	1354.1	0.00073851	146440	146460	788	851.17	1249.4	829.9	-3.2917E-07	0.00046027	0.099134	0.018741	2.0184	0.49544	338130	354680	1687.9	693.62	773.28	134.57	0.00004179	8.18E-06	0.0083466
231.73	34042	1353.2	0.00073899	146860	146890	789.84	851.43	1249.8	828.37	-3.2855E-07	0.00045812	0.098997	0.018687	2.0536	0.48696	338350	354930	1687.6	694.31	774.07	134.64	0.000041637	8.20E-06	0.0083734
232.07	34674	1352.3	0.00073947	147290	147310	791.67	851.69	1250.2	826.84	-3.2792E-07	0.00045598	0.098861	0.018633	2.0892	0.47865	338570	355170	1687.3	694.99	774.85	134.7	0.000041485	8.22E-06	0.0084001
232.41	35316	1351.4	0.00073995	147710	147740	793.5	851.95	1250.6	825.31	-3.273E-07	0.00045385	0.098724	0.018579	2.1253	0.47051	338790	355410	1687.1	695.68	775.64	134.77	0.000041334	8.24E-06	0.0084268
232.75	35968	1350.6	0.00074044	148140	148160	795.33	852.21	1251	823.79	-3.2667E-07	0.00045173	0.098588	0.018525	2.162	0.46254	339020	355650	1686.8	696.36	776.43	134.83	0.000041184	8.26E-06	0.0084535
233.09	36629	1349.7	0.00074092	148560	148590	797.15	852.48	1251.4	822.26	-3.2603E-07	0.00044963	0.098452	0.018471	2.1991	0.45473	339240	355900	1686.5	697.04	777.22	134.89	0.000041034	8.29E-06	0.0084803
233.43	37300	1348.8	0.00074141	148990	149010	798.98	852.74	1251.8	820.73	-3.2539E-07	0.00044753	0.098315	0.018418	2.2367	0.44708	339460	356140	1686.3	697.73	778.01	134.96	0.000040885	8.31E-06	0.008507
233.77	37981	1347.9	0.00074189	149410	149440	800.8	853.01	1252.3	819.2	-3.2475E-07	0.00044544	0.098179	0.018364	2.2749	0.43958	339690	356380	1686	698.41	778.8	135.02	0.000040737	8.33E-06	0.0085337
234.11	38672	1347	0.00074238	149840	149870	802.62	853.28	1252.7	817.67	-3.241E-07	0.00044337	0.098043	0.01831	2.3135	0.43224	339910	356630	1685.8	699.1	779.6	135.08	0.000040589	8.35E-06	0.0085603
234.45	39373	1346.1	0.00074287	150260	150290	804.43	853.54	1253.1	816.15	-3.2345E-07	0.0004413	0.097907	0.018256	2.3527	0.42504	340130	356870	1685.5	699.78	780.39	135.14	0.000040443	8.37E-06	0.008587
234.79	40084	1345.2	0.00074336	150690	150720	806.25	853.81	1253.5	814.62	-3.2279E-07	0.00043925	0.097771	0.018203	2.3924	0.41798	340360	357110	1685.3	700.46	781.19	135.2	0.000040297	8.39E-06	0.0086137
235.13	40806	1344.4	0.00074385	151120	151150	808.06	854.08	1254	813.1	-3.2213E-07	0.00043721	0.097635	0.018149	2.4327	0.41107	340580	357360	1685.1	701.15	781.98	135.26	0.000040152	8.41E-06	0.0086403
235.47	41537	1343.5	0.00074434	151540	151570	809.87	854.35	1254.4	811.57	-3.2147E-07	0.00043517	0.0975	0.018095	2.4735	0.40429	340810	357600	1684.8	701.83	782.78	135.32	0.000040007	8.43E-06	0.008667
235.81	42280	1342.6	0.00074483	151970	152000	811.68	854.62	1254.8	810.05	-3.208E-07	0.00043315	0.097364	0.018042	2.5148	0.39765	341030	357840	1684.6	702.52	783.58	135.38	0.000039864	8.45E-06	0.0086936
236.15	43033	1341.7	0.00074532	152390	152430	813.49	854.89	1255.3	808.52	-3.2012E-07	0.00043114	0.097228	0.017988	2.5567	0.39114	341250	358080	1684.4	703.2	784.38	135.44	0.000039721	8.48E-06	0.0087203
236.49	43797	1340.8	0.00074582	152820	152850	815.29	855.16	1255.7	807	-3.1945E-07	0.00042913	0.097093	0.017935	2.5991	0.38475	341480	358330	1684.1	703.88	785.18	135.5	0.000039579	8.50E-06	0.0087469
236.83	44572	1339.9	0.00074631	153250	153280	817.1	855.43	1256.2	805.47	-3.1877E-07	0.00042714	0.096958	0.017881	2.6421	0.37849	341700	358570	1683.9	704.57	785.98	135.56	0.000039437	8.52E-06	0.0087735
237.17	45357	1339	0.00074681	153670	153710	818.9	855.7	1256.6	803.95	-3.1808E-07	0.00042516	0.096822	0.017828	2.6856	0.37236	341920	358810	1683.7	705.25	786.79	135.62	0.000039297	8.54E-06	0.0088001
237.51	46154	1338.1	0.00074731	154100	154140	820.7	855.98	1257	802.43	-3.1739E-07	0.00042318	0.096687	0.017774	2.7297	0.36634	342150	359060	1683.5	705.93	787.59	135.68	0.000039157	8.56E-06	0.0088267
237.85	46962	1337.3	0.0007478	154530	154560	822.5	856.25	1257.5	800.91	-3.167E-07	0.00042122	0.096552	0.017721	2.7744	0.36044	342370	359300	1683.3	706.62	788.4	135.74	0.000039018	8.58E-06	0.0088533
238.19	47781	1336.4	0.0007483	154960	154990	824.29	856.53	1258	799.38	-0.000000316	0.00041927	0.096417	0.017668	2.8196	0.35466	342600	359540	1683.1	707.3	789.21	135.79	0.000038879	8.60E-06	0.0088799
238.53	48612	1335.5	0.0007488	155380	155420	826.08	856.8	1258.4	797.86	-3.153E-07	0.00041732	0.096282	0.017614	2.8655	0.34898	342820	359790	1682.9	707.99	790.02	135.85	0.000038742	8.62E-06	0.0089065
238.87	49455	1334.6	0.0007493	155810	155850	827.88	857.08	1258.9	796.34	-3.1459E-07	0.00041539	0.096147	0.017561	2.9119	0.34342	343050	360030	1682.7	708.67	790.83	135.91	0.000038605	8.64E-06	0.008933
239.21	50309	1333.7	0.00074981	156240	156280	829.67	857.36	1259.3	794.82	-3.1388E-07	0.00041347	0.096012	0.017508	2.9589	0.33796	343270	360270	1682.5	709.36	791.64	135.96	0.000038469	8.66E-06	0.0089596
239.55	51174	1332.8	0.00075031	156670	156710	831.45	857.64	1259.8	793.3	-3.1316E-07	0.00041155	0.095877	0.017455	3.0066	0.33261	343490	360520	1682.3	710.04	792.46	136.02	0.000038333	8.69E-06	0.0089861
239.89	52052	1331.9	0.00075081	157100	157130	833.24	857.91	1260.3	791.78	-3.1244E-07	0.00040965	0.095743	0.017402	3.0548	0.32735	343720	360760	1682.1	710.73	793.27	136.07	0.000038198	8.71E-06	0.0090127
240.23	52942	1331	0.00075132	157520	157560	835.02	858.19	1260.7	790.26	-3.1172E-07	0.00040775	0.095608	0.017348	3.1036	0.3222	343940	361000	1681.9	711.41	794.09	136.13	0.000038064	8.73E-06	0.0090392
240.57	53843	1330.1	0.00075183	157950	157990	836.81	858.47	1261.2	788.74	-3.1099E-07	0.00040587	0.095474	0.017295	3.1531	0.31715	344170	361240	1681.7	712.1	794.91	136.18	0.000037931	8.75E-06	0.0090657
240.91	54757	1329.2	0.00075233	158380	158420	838.59	858.75	1261.7	787.22	-3.1026E-07	0.00040399	0.095339	0.017242	3.2032	0.31219	344390	361490	1681.5	712.78	795.73	136.24	0.000037798	8.77E-06	0.0090922
241.25	55684	1328.3	0.00075284	158810	158850	840.36	859.04	1262.1	785.7	-3.0952E-07	0.00040212	0.095205	0.017189	3.2539	0.30733	344620	361730	1681.3	713.47	796.55	136.29	0.000037666	8.79E-06	0.0091187
241.59	56623	1327.4	0.00075335	159240	159280	842.14	859.32	1262.6	784.18	-3.0878E-07	0.00040027	0.095071	0.017136	3.3052	0.30255	344840	361970	1681.1	714.15	797.38	136.34	0.000037535	8.81E-06	0.0091452
241.93	57574	1326.5	0.00075386	159670	159710	843.91	859.6	1263.1	782.66	-3.0803E-07	0.00039842	0.094937	0.017083	3.3572	0.29787	345070	362220	1681	714.84	798.2	136.39	0.000037405	8.83E-06	0.0091717
242.27	58539	1325.6	0.00075437	160100	160140	845.69	859.88	1263.6	781.15	-3.0728E-07	0.00039658	0.094803	0.01703	3.4098	0.29327	345290	362460	1680.8	715.53	799.03	136.45	0.000037275	8.85E-06	0.0091982
242.61	59516	1324.7	0.00075489	160530	160570	847.46	860.17	1264.1	779.63	-3.0652E-07	0.00039475	0.094669	0.016978	3.4631	0.28876	345520	362700	1680.6	716.21	799.86	136.5	0.000037146	8.87E-06	0.0092247
242.95	60506	1323.8	0.0007554	160950	161000	849.23	860.45	1264.5	778.11	-3.0576E-07	0.00039293	0.094535	0.016925	3.517	0.28433	345740	362940	1680.4	716.9	800.69	136.55	0.000037017	8.90E-06	0.0092512
243.29	61509	1322.9	0.00075592	161380	161430	850.99	860.74	1265	776.59	-3.0499E-07	0.00039112	0.094401	0.016872	3.5716	0.27998	345960	363190	1680.3	717.59	801.52	136.6	0.000036889	8.92E-06	0.0092776
243.63	62525	1322	0.00075643	161810	161860	852.76	861.03	1265.5	775.08	-3.0422E-07	0.00038932	0.094268	0.016819	3.6269	0.27572	346190	363430	1680.1	718.27	802.35	136.65	0.000036762	8.94E-06	0.0093041
243.97	63555	1321.1	0.00075695	162240	162290	854.52	861.31	1266	773.56	-3.0345E-07	0.00038752	0.094134	0.016766	3.6828	0.27153	346410	363670	1680	718.96	803.19	136.7	0.000036636	8.96E-06	0.0093305
244.31	64598	1320.2	0.00075747	162670	162720	856.29	861.6	1266.5	772.04	-3.0267E-07	0.00038574	0.094001	0.016714	3.7394	0.26742	346640	363910	1679.8	719.65	804.03	136.75	0.00003651	8.98E-06	0.0093569
244.65	65655	1319.3	0.00075799	163100	163150	858.05	861.89	1267	770.53	-3.0188E-07	0.00038396	0.093867	0.016661	3.7967	0.26338	346860	364160	1679.6	720.34	804.86	136.8	0.000036385	9.00E-06	0.0093834
244.99	66726	1318.4	0.00075851	163530	163590	859.8	862.18	1267.5	769.01	-3.0109E-07	0.0003822	0.093734	0.016608	3.8547	0.25942	347090	364400	1679.5	721.02	805.7	136.85	0.000036261	9.02E-06	0.0094098
245.33	67810	1317.5	0.00075903	163970	164020	861.56	862.47	1268	767.5	-3.0029E-07	0.00038044	0.093601	0.016556	3.9134	0.25553	347310	364640	1679.3	721.71	806.55	136.89	0.000036137	9.04E-06	0.0094362
245.67	68908	1316.6	0.00075956	164400	164450	863.32	862.76	1268.5	765.98	-2.9949E-07	0.00037869	0.093468	0.016503	3.9728	0.25171	347540	364880	1679.2	722.4	807.39	136.94	0.000036014	9.06E-06	0.0094626
246.01	70021	1315.7	0.00076008	164830	164880	865.07	863.05	1269	764.47	-2.9869E-07	0.00037695	0.093335	0.016451	4.0329	0.24796	347760	365130	1679	723.09	808.24	136.99	0.000035892	9.08E-06	0.009489
246.35	71147	1314.7	0.00076061	165260	165310	866.82	863.34	1269.6	762.95	-2.9788E-07	0.00037522	0.093202	0.016398	4.0937	0.24428	347990	365370	1678.9	723.78	809.09	137.04	0.00003577	9.10E-06	0.0095154
246.69	72288	1313.8	0.00076113	165690	165740	868.57	863.63	1270.1	761.44	-2.9707E-07	0.00037349	0.09307	0.016346	4.1553	0.24066	348210	365610	1678.8	724.47	809.94	137.08	0.000035649	9.12E-06	0.0095418
247.03	73444	1312.9	0.00076166	166120	166180	870.32	863.92	1270.6	759.93	-2.9625E-07	0.00037178	0.092937	0.016293	4.2175	0.23711	348440	365850	1678.6	725.16	810.79	137.13	0.000035528	9.15E-06	0.0095682
247.37	74614	1312	0.00076219	166550	166610	872.06	864.22	1271.1	758.41	-2.9542E-07	0.00037007	0.092805	0.016241	4.2805	0.23362	348660	366100	1678.5	725.85	811.64	137.17	0.000035408	9.17E-06	0.0095945
247.71	75799	1311.1	0.00076272	166980	167040	873.81	864.51	1271.6	756.9	-2.9459E-07	0.00036838	0.092673	0.016189	4.3443	0.23019	348890	366340	1678.4	726.54	812.5	137.22	0.000035289	9.19E-06	0.0096209
248.05	76999	1310.2	0.00076325	167420	167470	875.55	864.81	1272.2	755.38	-2.9376E-07	0.00036669	0.09254	0.016137	4.4088	0.22682	349110	366580	1678.2	727.23	813.35	137.26	0.000035171	9.21E-06	0.0096473
248.39	78214	1309.3	0.00076378	167850	167910	877.29	865.1	1272.7	753.87	-2.9292E-07	0.00036501	0.092408	0.016084	4.474	0.22351	349340	366820	1678.1	727.92	814.21	137.3	0.000035053	9.23E-06	0.0096736
248.73	79444	1308.4	0.00076432	168280	168340	879.03	865.4	1273.2	752.36	-2.9207E-07	0.00036334	0.092276	0.016032	4.54	0.22026	349560	367060	1678	728.62	815.08	137.35	0.000034936	9.25E-06	0.0097
249.07	80689	1307.4	0.00076485	168710	168770	880.77	865.7	1273.7	750.85	-2.9122E-07	0.00036167	0.092145	0.01598	4.6067	0.21707	349790	367300	1677.9	729.31	815.94	137.39	0.000034819	9.27E-06	0.0097263
249.41	81949	1306.5	0.00076539	169150	169210	882.5	865.99	1274.3	749.33	-2.9036E-07	0.00036002	0.092013	0.015928	4.6743	0.21394	350010	367550	1677.7	730	816.81	137.43	0.000034703	9.29E-06	0.0097526
249.75	83225	1305.6	0.00076593	169580	169640	884.24	866.29	1274.8	747.82	-2.895E-07	0.00035837	0.091881	0.015876	4.7426	0.21086	350240	367790	1677.6	730.69	817.67	137.47	0.000034588	0.000009311	0.0097789
250.09	84517	1304.7	0.00076647	170010	170080	885.97	866.59	1275.4	746.31	-2.8863E-07	0.00035673	0.09175	0.015824	4.8117	0.20783	350470	368030	1677.5	731.39	818.54	137.52	0.000034473	9.33E-06	0.0098053
250.43	85825	1303.8	0.00076701	170440	170510	887.7	866.89	1275.9	744.8	-2.8776E-07	0.0003551	0.091618	0.015772	4.8816	0.20485	350690	368270	1677.4	732.08	819.42	137.56	0.000034359	9.35E-06	0.0098316
250.77	87149	1302.9	0.00076755	170880	170940	889.43	867.19	1276.4	743.29	-2.8688E-07	0.00035348	0.091487	0.01572	4.9523	0.20193	350920	368510	1677.3	732.77	820.29	137.6	0.000034246	9.37E-06	0.0098579
251.11	88488	1301.9	0.00076809	171310	171380	891.16	867.49	1277	741.77	-0.000000286	0.00035186	0.091355	0.015668	5.0237	0.19905	351140	368750	1677.2	733.47	821.17	137.64	0.000034133	9.39E-06	0.0098842
251.45	89844	1301	0.00076863	171750	171810	892.89	867.79	1277.5	740.26	-2.8511E-07	0.00035026	0.091224	0.015616	5.096	0.19623	351370	369000	1677.1	734.16	822.04	137.68	0.000034021	9.41E-06	0.0099105
251.79	91216	1300.1	0.00076918	172180	172250	894.61	868.09	1278.1	738.75	-2.8422E-07	0.00034866	0.091093	0.015564	5.1692	0.19346	351590	369240	1677	734.86	822.93	137.71	0.000033909	9.44E-06	0.0099368
252.13	92605	1299.2	0.00076973	172610	172680	896.33	868.4	1278.7	737.24	-2.8332E-07	0.00034707	0.090962	0.015512	5.2431	0.19073	351820	369480	1676.9	735.56	823.81	137.75	0.000033798	9.46E-06	0.009963
252.47	94011	1298.2	0.00077027	173050	173120	898.05	868.7	1279.2	735.73	-2.8242E-07	0.00034548	0.090831	0.01546	5.3179	0.18805	352040	369720	1676.8	736.25	824.69	137.79	0.000033688	9.48E-06	0.0099893
252.81	95433	1297.3	0.00077082	173480	173560	899.77	869	1279.8	734.22	-2.815E-07	0.00034391	0.090701	0.015408	5.3935	0.18541	352270	369960	1676.7	736.95	825.58	137.83	0.000033578	9.50E-06	0.010016
253.15	96872	1296.4	0.00077137	173920	173990	901.49	869.31	1280.3	732.71	-2.8059E-07	0.00034234	0.09057	0.015357	5.4699	0.18282	352490	370200	1676.6	737.65	826.47	137.87	0.000033469	9.52E-06	0.010042
253.49	98328	1295.5	0.00077193	174350	174430	903.21	869.61	1280.9	731.2	-2.7967E-07	0.00034078	0.090439	0.015305	5.5472	0.18027	352720	370440	1676.5	738.35	827.36	137.9	0.000033361	9.54E-06	0.010068
253.83	99801	1294.5	0.00077248	174790	174860	904.92	869.92	1281.5	729.69	-2.7874E-07	0.00033923	0.090309	0.015253	5.6254	0.17777	352940	370680	1676.4	739.04	828.26	137.94	0.000033253	0.000009559	0.010094
254.17	101290	1293.6	0.00077303	175220	175300	906.64	870.23	1282	728.18	-2.7781E-07	0.00033769	0.090178	0.015202	5.7044	0.1753	353170	370920	1676.3	739.74	829.16	137.97	0.000033145	9.58E-06	0.010121
254.51	102800	1292.7	0.00077359	175660	175740	908.35	870.53	1282.6	726.67	-2.7687E-07	0.00033615	0.090048	0.01515	5.7843	0.17288	353390	371170	1676.2	740.44	830.05	138.01	0.000033038	9.60E-06	0.010147
254.85	104330	1291.7	0.00077415	176090	176170	910.06	870.84	1283.2	725.16	-2.7592E-07	0.00033462	0.089918	0.015099	5.8651	0.1705	353620	371410	1676.1	741.14	830.96	138.04	0.000032932	9.62E-06	0.010173
255.19	105870	1290.8	0.0007747	176530	176610	911.77	871.15	1283.8	723.65	-2.7497E-07	0.0003331	0.089788	0.015047	5.9467	0.16816	353840	371650	1676	741.84	831.86	138.07	0.000032827	9.64E-06	0.010199
255.53	107430	1289.9	0.00077526	176960	177050	913.47	871.46	1284.4	722.14	-2.7401E-07	0.00033159	0.089658	0.014996	6.0293	0.16586	354070	371890	1676	742.54	832.77	138.11	0.000032722	0.000009662	0.010226
255.87	109010	1288.9	0.00077583	177400	177480	915.18	871.77	1284.9	720.63	-2.7305E-07	0.00033008	0.089528	0.014944	6.1127	0.16359	354290	372130	1675.9	743.24	833.68	138.14	0.000032617	9.68E-06	0.010252
256.21	110610	1288	0.00077639	177840	177920	916.88	872.08	1285.5	719.12	-2.7208E-07	0.00032858	0.089398	0.014893	6.1971	0.16137	354520	372370	1675.8	743.95	834.59	138.17	0.000032513	9.70E-06	0.010278
256.55	112220	1287.1	0.00077695	178270	178360	918.59	872.39	1286.1	717.62	-2.7111E-07	0.00032709	0.089268	0.014842	6.2823	0.15918	354740	372610	1675.7	744.65	835.5	138.2	0.00003241	9.72E-06	0.010304
256.89	113860	1286.1	0.00077752	178710	178800	920.29	872.71	1286.7	716.11	-2.7013E-07	0.00032561	0.089139	0.01479	6.3685	0.15702	354970	372850	1675.7	745.35	836.42	138.24	0.000032307	9.74E-06	0.010331
257.23	115510	1285.2	0.00077808	179150	179240	921.99	873.02	1287.3	714.6	-2.6914E-07	0.00032413	0.089009	0.014739	6.4556	0.1549	355190	373090	1675.6	746.06	837.34	138.27	0.000032205	9.76E-06	0.010357
257.57	117180	1284.3	0.00077865	179580	179670	923.68	873.33	1287.9	713.09	-2.6815E-07	0.00032266	0.08888	0.014688	6.5437	0.15282	355420	373330	1675.5	746.76	838.26	138.3	0.000032104	9.79E-06	0.010383
257.91	118870	1283.3	0.00077922	180020	180110	925.38	873.65	1288.5	711.58	-2.6715E-07	0.0003212	0.08875	0.014637	6.6327	0.15077	355640	373570	1675.5	747.47	839.18	138.33	0.000032003	0.000009806	0.010409
258.25	120580	1282.4	0.00077979	180460	180550	927.08	873.96	1289.1	710.07	-2.6614E-07	0.00031975	0.088621	0.014586	6.7226	0.14875	355870	373810	1675.4	748.17	840.11	138.35	0.000031902	9.83E-06	0.010435
258.59	122310	1281.4	0.00078037	180890	180990	928.77	874.28	1289.7	708.56	-2.6513E-07	0.0003183	0.088492	0.014534	6.8135	0.14677	356090	374050	1675.3	748.88	841.04	138.38	0.000031802	0.000009847	0.010462
258.93	124060	1280.5	0.00078094	181330	181430	930.46	874.59	1290.3	707.06	-2.6411E-07	0.00031686	0.088363	0.014483	6.9054	0.14481	356320	374290	1675.3	749.58	841.97	138.41	0.000031703	9.87E-06	0.010488
259.27	125830	1279.6	0.00078152	181770	181870	932.15	874.91	1290.9	705.55	-2.6309E-07	0.00031543	0.088234	0.014432	6.9982	0.14289	356540	374520	1675.2	750.29	842.91	138.44	0.000031604	9.89E-06	0.010514
259.61	127620	1278.6	0.00078209	182210	182310	933.84	875.23	1291.5	704.04	-2.6206E-07	0.000314	0.088105	0.014381	7.092	0.141	356770	374760	1675.2	751	843.85	138.46	0.000031506	9.91E-06	0.01054
259.95	129420	1277.7	0.00078267	182650	182750	935.53	875.55	1292.2	702.53	-2.6102E-07	0.00031258	0.087977	0.01433	7.1868	0.13914	356990	375000	1675.1	751.71	844.79	138.49	0.000031409	9.93E-06	0.010566
260.29	131250	1276.7	0.00078325	183090	183190	937.21	875.87	1292.8	701.03	-2.5997E-07	0.00031117	0.087848	0.014279	7.2826	0.13731	357220	375240	1675.1	752.42	845.73	138.52	0.000031311	9.95E-06	0.010593
260.63	133100	1275.8	0.00078383	183520	183630	938.9	876.19	1293.4	699.52	-2.5892E-07	0.00030977	0.08772	0.014229	7.3794	0.13551	357440	375480	1675	753.13	846.68	138.54	0.000031215	9.97E-06	0.010619
260.97	134970	1274.8	0.00078442	183960	184070	940.58	876.51	1294	698.01	-2.5787E-07	0.00030837	0.087591	0.014178	7.4772	0.13374	357670	375720	1675	753.84	847.63	138.57	0.000031119	9.99E-06	0.010645
261.31	136860	1273.9	0.000785	184400	184510	942.26	876.83	1294.7	696.5	-2.568E-07	0.00030698	0.087463	0.014127	7.5761	0.13199	357890	375960	1674.9	754.55	848.58	138.59	0.000031023	0.000010011	0.010671
261.65	138760	1272.9	0.00078559	184840	184950	943.95	877.15	1295.3	695	-2.5573E-07	0.00030559	0.087335	0.014076	7.6759	0.13028	358120	376200	1674.9	755.26	849.53	138.61	0.000030929	0.000010032	0.010697
261.99	140690	1272	0.00078617	185280	185390	945.62	877.47	1295.9	693.49	-2.5466E-07	0.00030422	0.087207	0.014026	7.7768	0.12859	358340	376430	1674.8	755.97	850.49	138.64	0.000030834	0.000010052	0.010724
262.33	142640	1271	0.00078676	185720	185830	947.3	877.8	1296.6	691.98	-2.5357E-07	0.00030285	0.087079	0.013975	7.8787	0.12692	358570	376670	1674.8	756.68	851.45	138.66	0.00003074	0.000010073	0.01075
262.67	144620	1270.1	0.00078735	186160	186270	948.98	878.12	1297.2	690.48	-2.5248E-07	0.00030148	0.086951	0.013924	7.9817	0.12529	358790	376910	1674.7	757.4	852.41	138.68	0.000030647	0.000010093	0.010776
263.01	146610	1269.1	0.00078795	186600	186720	950.65	878.45	1297.8	688.97	-2.5138E-07	0.00030013	0.086823	0.013874	8.0857	0.12367	359020	377150	1674.7	758.11	853.38	138.7	0.000030554	0.000010113	0.010802
263.35	148620	1268.2	0.00078854	187040	187160	952.33	878.77	1298.5	687.46	-2.5028E-07	0.00029878	0.086695	0.013823	8.1908	0.12209	359240	377390	1674.7	758.83	854.35	138.72	0.000030462	0.000010134	0.010828
263.69	150660	1267.2	0.00078914	187480	187600	954	879.1	1299.1	685.96	-2.4917E-07	0.00029743	0.086568	0.013773	8.297	0.12053	359470	377620	1674.6	759.54	855.32	138.74	0.00003037	0.000010154	0.010855
264.03	152720	1266.3	0.00078973	187920	188040	955.67	879.43	1299.8	684.45	-2.4805E-07	0.0002961	0.08644	0.013722	8.4042	0.11899	359690	377860	1674.6	760.26	856.3	138.76	0.000030279	0.000010175	0.010881
264.37	154790	1265.3	0.00079033	188360	188490	957.34	879.76	1300.4	682.94	-2.4692E-07	0.00029477	0.086313	0.013672	8.5126	0.11747	359920	378100	1674.6	760.97	857.28	138.78	0.000030188	0.000010195	0.010907
264.71	156890	1264.3	0.00079093	188800	188930	959.01	880.09	1301.1	681.44	-2.4579E-07	0.00029344	0.086186	0.013621	8.622	0.11598	360140	378340	1674.5	761.69	858.26	138.8	0.000030098	0.000010216	0.010933
265.05	159020	1263.4	0.00079153	189250	189370	960.67	880.42	1301.8	679.93	-2.4465E-07	0.00029213	0.086059	0.013571	8.7325	0.11451	360360	378570	1674.5	762.41	859.24	138.82	0.000030009	0.000010236	0.010959
265.39	161160	1262.4	0.00079214	189690	189820	962.34	880.75	1302.4	678.43	-2.435E-07	0.00029081	0.085932	0.013521	8.8442	0.11307	360590	378810	1674.5	763.13	860.23	138.83	0.000029919	0.000010257	0.010986
265.73	163330	1261.4	0.00079274	190130	190260	964	881.08	1303.1	676.92	-2.4235E-07	0.00028951	0.085805	0.01347	8.957	0.11165	360810	379050	1674.5	763.85	861.22	138.85	0.000029831	0.000010277	0.011012
266.07	165520	1260.5	0.00079335	190570	190700	965.67	881.41	1303.8	675.41	-2.4118E-07	0.00028821	0.085678	0.01342	9.0709	0.11024	361040	379280	1674.4	764.57	862.22	138.87	0.000029743	0.000010298	0.011038
266.41	167730	1259.5	0.00079396	191010	191150	967.33	881.75	1304.4	673.91	-2.4002E-07	0.00028692	0.085551	0.01337	9.1859	0.10886	361260	379520	1674.4	765.29	863.21	138.88	0.000029655	0.000010318	0.011064
266.75	169970	1258.5	0.00079457	191460	191590	968.99	882.08	1305.1	672.4	-2.3884E-07	0.00028564	0.085424	0.01332	9.3021	0.1075	361490	379760	1674.4	766.01	864.21	138.9	0.000029568	0.000010338	0.01109
267.09	172230	1257.6	0.00079518	191900	192040	970.65	882.42	1305.8	670.9	-2.3765E-07	0.00028436	0.085298	0.01327	9.4194	0.10616	361710	379990	1674.4	766.73	865.22	138.91	0.000029481	0.000010359	0.011117
267.43	174510	1256.6	0.00079579	192340	192480	972.3	882.75	1306.5	669.39	-2.3646E-07	0.00028309	0.085172	0.01322	9.5379	0.10484	361930	380230	1674.4	767.46	866.23	138.93	0.000029395	0.000010379	0.011143
267.77	176820	1255.6	0.00079641	192780	192930	973.96	883.09	1307.2	667.89	-2.3526E-07	0.00028182	0.085045	0.01317	9.6576	0.10355	362160	380470	1674.3	768.18	867.24	138.94	0.00002931	0.0000104	0.011169
268.11	179150	1254.7	0.00079702	193230	193370	975.62	883.43	1307.9	666.38	-2.3405E-07	0.00028056	0.084919	0.01312	9.7785	0.10227	362380	380700	1674.3	768.91	868.25	138.95	0.000029225	0.00001042	0.011195
268.45	181500	1253.7	0.00079764	193670	193820	977.27	883.76	1308.6	664.88	-2.3284E-07	0.00027931	0.084793	0.01307	9.9005	0.101	362610	380940	1674.3	769.63	869.27	138.96	0.00002914	0.00001044	0.011222
268.79	183880	1252.7	0.00079826	194120	194260	978.92	884.1	1309.2	663.37	-2.3162E-07	0.00027806	0.084667	0.01302	10.024	0.099763	362830	381170	1674.3	770.36	870.29	138.97	0.000029056	0.000010461	0.011248
269.13	186280	1251.7	0.00079888	194560	194710	980.57	884.44	1309.9	661.87	-2.3038E-07	0.00027682	0.084541	0.01297	10.148	0.09854	363050	381410	1674.3	771.08	871.32	138.98	0.000028972	0.000010481	0.011274
269.47	188700	1250.8	0.00079951	195000	195150	982.22	884.78	1310.6	660.36	-2.2915E-07	0.00027558	0.084415	0.01292	10.274	0.097334	363280	381640	1674.3	771.81	872.34	138.99	0.000028889	0.000010502	0.0113
269.81	191150	1249.8	0.00080013	195450	195600	983.87	885.13	1311.4	658.86	-2.279E-07	0.00027436	0.08429	0.012871	10.401	0.096147	363500	381880	1674.3	772.54	873.38	139	0.000028806	0.000010522	0.011327
270.15	193630	1248.8	0.00080076	195890	196050	985.52	885.47	1312.1	657.35	-2.2664E-07	0.00027313	0.084164	0.012821	10.529	0.094977	363720	382110	1674.3	773.27	874.41	139.01	0.000028724	0.000010543	0.011353
270.49	196130	1247.8	0.00080139	196340	196490	987.16	885.81	1312.8	655.85	-2.2538E-07	0.00027192	0.084039	0.012771	10.658	0.093824	363950	382350	1674.3	774	875.45	139.02	0.000028643	0.000010563	0.011379
270.83	198650	1246.9	0.00080202	196780	196940	988.81	886.16	1313.5	654.35	-2.2411E-07	0.00027071	0.083913	0.012722	10.789	0.092688	364170	382580	1674.3	774.73	876.49	139.03	0.000028561	0.000010583	0.011405
271.17	201200	1245.9	0.00080265	197230	197390	990.45	886.5	1314.2	652.84	-2.2283E-07	0.0002695	0.083788	0.012672	10.921	0.091569	364390	382820	1674.3	775.46	877.54	139.04	0.000028481	0.000010604	0.011432
271.51	203770	1244.9	0.00080329	197670	197840	992.09	886.85	1314.9	651.34	-2.2154E-07	0.0002683	0.083663	0.012622	11.054	0.090466	364620	383050	1674.3	776.19	878.59	139.04	0.0000284	0.000010624	0.011458
271.85	206370	1243.9	0.00080392	198120	198280	993.74	887.2	1315.7	649.83	-2.2024E-07	0.00026711	0.083538	0.012573	11.188	0.089379	364840	383290	1674.3	776.93	879.64	139.05	0.000028321	0.000010644	0.011484
272.19	209000	1242.9	0.00080456	198560	198730	995.38	887.55	1316.4	648.33	-2.1894E-07	0.00026592	0.083413	0.012523	11.324	0.088307	365060	383520	1674.3	777.66	880.7	139.05	0.000028241	0.000010665	0.011511
272.53	211650	1241.9	0.0008052	199010	199180	997.01	887.89	1317.1	646.83	-2.1762E-07	0.00026474	0.083288	0.012474	11.461	0.087252	365290	383750	1674.3	778.4	881.76	139.06	0.000028163	0.000010685	0.011537
272.87	214330	1240.9	0.00080584	199460	199630	998.65	888.24	1317.9	645.32	-2.163E-07	0.00026357	0.083164	0.012425	11.599	0.086211	365510	383990	1674.3	779.13	882.82	139.06	0.000028084	0.000010706	0.011563
273.21	217030	1239.9	0.00080649	199900	200080	1000.3	888.6	1318.6	643.82	-2.1497E-07	0.0002624	0.083039	0.012375	11.739	0.085185	365730	384220	1674.3	779.87	883.89	139.06	0.000028006	0.000010726	0.01159
273.55	219760	1239	0.00080713	200350	200530	1001.9	888.95	1319.3	642.32	-2.1363E-07	0.00026123	0.082915	0.012326	11.88	0.084175	365960	384450	1674.3	780.61	884.97	139.07	0.000027929	0.000010746	0.011616
273.89	222510	1238	0.00080778	200800	200980	1003.6	889.3	1320.1	640.81	-2.1228E-07	0.00026007	0.08279	0.012277	12.022	0.083178	366180	384690	1674.3	781.34	886.04	139.07	0.000027852	0.000010767	0.011642
274.23	225290	1237	0.00080843	201250	201430	1005.2	889.65	1320.8	639.31	-2.1092E-07	0.00025892	0.082666	0.012228	12.166	0.082196	366400	384920	1674.3	782.08	887.12	139.07	0.000027775	0.000010787	0.011669
274.57	228100	1236	0.00080908	201690	201880	1006.8	890.01	1321.6	637.81	-2.0955E-07	0.00025777	0.082542	0.012178	12.311	0.081228	366620	385150	1674.3	782.82	888.21	139.07	0.000027699	0.000010808	0.011695
274.91	230940	1235	0.00080973	202140	202330	1008.5	890.36	1322.4	636.31	-2.0818E-07	0.00025663	0.082418	0.012129	12.457	0.080273	366850	385390	1674.3	783.56	889.3	139.07	0.000027624	0.000010828	0.011722
275.25	233800	1234	0.00081039	202590	202780	1010.1	890.72	1323.1	634.8	-2.0679E-07	0.0002555	0.082294	0.01208	12.605	0.079332	367070	385620	1674.3	784.3	890.39	139.07	0.000027548	0.000010848	0.011748
275.59	236690	1233	0.00081104	203040	203230	1011.7	891.08	1323.9	633.3	-2.054E-07	0.00025437	0.08217	0.012031	12.754	0.078405	367290	385850	1674.4	785.05	891.49	139.07	0.000027474	0.000010869	0.011774
275.93	239610	1232	0.0008117	203490	203680	1013.3	891.44	1324.7	631.8	-2.0399E-07	0.00025324	0.082047	0.011982	12.905	0.07749	367510	386080	1674.4	785.79	892.59	139.07	0.0000274	0.000010889	0.011801
276.27	242550	1231	0.00081236	203930	204130	1015	891.79	1325.4	630.3	-2.0258E-07	0.00025213	0.081923	0.011933	13.057	0.076588	367740	386310	1674.4	786.53	893.69	139.07	0.000027326	0.00001091	0.011827
276.61	245530	1230	0.00081303	204380	204580	1016.6	892.15	1326.2	628.8	-2.0115E-07	0.00025101	0.0818	0.011884	13.21	0.075699	367960	386540	1674.4	787.28	894.8	139.06	0.000027252	0.00001093	0.011854
276.95	248530	1229	0.00081369	204830	205040	1018.2	892.52	1327	627.3	-1.9972E-07	0.0002499	0.081677	0.011836	13.365	0.074823	368180	386780	1674.4	788.02	895.92	139.06	0.000027179	0.00001095	0.01188
277.29	251560	1228	0.00081436	205280	205490	1019.8	892.88	1327.8	625.8	-1.9828E-07	0.0002488	0.081553	0.011787	13.521	0.073958	368400	387010	1674.5	788.77	897.03	139.05	0.000027107	0.000010971	0.011907
277.63	254610	1227	0.00081503	205730	205940	1021.5	893.24	1328.6	624.29	-1.9682E-07	0.0002477	0.08143	0.011738	13.679	0.073106	368620	387240	1674.5	789.52	898.16	139.05	0.000027035	0.000010991	0.011933
277.97	257700	1225.9	0.0008157	206180	206390	1023.1	893.6	1329.4	622.79	-1.9536E-07	0.00024661	0.081307	0.011689	13.838	0.072265	368850	387470	1674.5	790.27	899.28	139.04	0.000026963	0.000011011	0.01196
278.31	260810	1224.9	0.00081637	206630	206850	1024.7	893.97	1330.2	621.29	-1.9389E-07	0.00024553	0.081184	0.011641	13.999	0.071436	369070	387700	1674.5	791.02	900.41	139.04	0.000026892	0.000011032	0.011986
278.65	263960	1223.9	0.00081705	207080	207300	1026.3	894.33	1331	619.79	-1.924E-07	0.00024445	0.081062	0.011592	14.161	0.070618	369290	387930	1674.5	791.77	901.55	139.03	0.000026821	0.000011052	0.012013
278.99	267130	1222.9	0.00081773	207530	207750	1027.9	894.7	1331.8	618.29	-1.9091E-07	0.00024337	0.080939	0.011543	14.324	0.069812	369510	388160	1674.6	792.52	902.69	139.02	0.000026751	0.000011073	0.01204
279.33	270330	1221.9	0.0008184	207980	208210	1029.5	895.07	1332.6	616.79	-1.8941E-07	0.0002423	0.080817	0.011495	14.489	0.069017	369730	388390	1674.6	793.27	903.83	139.01	0.000026681	0.000011093	0.012066
279.67	273560	1220.9	0.00081909	208440	208660	1031.2	895.43	1333.4	615.29	-1.8789E-07	0.00024123	0.080694	0.011446	14.656	0.068232	369950	388620	1674.6	794.02	904.98	139	0.000026612	0.000011113	0.012093
280.01	276820	1219.9	0.00081977	208890	209110	1032.8	895.8	1334.2	613.79	-1.8637E-07	0.00024017	0.080572	0.011398	14.824	0.067459	370170	388850	1674.7	794.78	906.14	138.99	0.000026543	0.000011134	0.01212
280.35	280110	1218.8	0.00082046	209340	209570	1034.4	896.17	1335.1	612.29	-1.8483E-07	0.00023912	0.08045	0.011349	14.993	0.066696	370400	389080	1674.7	795.53	907.3	138.98	0.000026474	0.000011154	0.012146
280.69	283430	1217.8	0.00082114	209790	210020	1036	896.54	1335.9	610.8	-1.8328E-07	0.00023807	0.080328	0.011301	15.165	0.065943	370620	389310	1674.7	796.29	908.46	138.97	0.000026406	0.000011175	0.012173
281.03	286780	1216.8	0.00082183	210240	210480	1037.6	896.91	1336.7	609.3	-1.8173E-07	0.00023703	0.080206	0.011253	15.337	0.0652	370840	389540	1674.8	797.04	909.63	138.96	0.000026338	0.000011195	0.0122
281.37	290160	1215.8	0.00082253	210700	210930	1039.2	897.29	1337.6	607.8	-1.8016E-07	0.00023599	0.080084	0.011205	15.512	0.064468	371060	389760	1674.8	797.8	910.8	138.95	0.000026271	0.000011215	0.012226
281.71	293570	1214.7	0.00082322	211150	211390	1040.8	897.66	1338.4	606.3	-1.7858E-07	0.00023495	0.079962	0.011156	15.688	0.063745	371280	389990	1674.8	798.56	911.98	138.94	0.000026204	0.000011236	0.012253
282.05	297010	1213.7	0.00082392	211600	211850	1042.4	898.03	1339.3	604.8	-1.7699E-07	0.00023392	0.07984	0.011108	15.865	0.063032	371500	390220	1674.9	799.32	913.16	138.92	0.000026138	0.000011256	0.01228
282.39	300480	1212.7	0.00082462	212050	212300	1044	898.41	1340.1	603.3	-1.7539E-07	0.0002329	0.079719	0.01106	16.044	0.062329	371720	390450	1674.9	800.08	914.35	138.91	0.000026072	0.000011277	0.012307
282.73	303990	1211.7	0.00082532	212510	212760	1045.7	898.78	1341	601.81	-1.7377E-07	0.00023188	0.079598	0.011012	16.225	0.061635	371940	390680	1674.9	800.84	915.54	138.89	0.000026006	0.000011297	0.012334
283.07	307520	1210.6	0.00082602	212960	213220	1047.3	899.16	1341.8	600.31	-1.7215E-07	0.00023087	0.079476	0.010964	16.407	0.06095	372160	390900	1675	801.6	916.74	138.88	0.000025941	0.000011317	0.01236
283.41	311090	1209.6	0.00082673	213420	213670	1048.9	899.54	1342.7	598.81	-1.7051E-07	0.00022986	0.079355	0.010916	16.591	0.060274	372380	391130	1675	802.36	917.94	138.86	0.000025876	0.000011338	0.012387
283.75	314680	1208.6	0.00082744	213870	214130	1050.5	899.91	1343.6	597.31	-1.6886E-07	0.00022885	0.079234	0.010868	16.776	0.059608	372600	391360	1675	803.13	919.15	138.84	0.000025812	0.000011358	0.012414
284.09	318310	1207.5	0.00082815	214320	214590	1052.1	900.29	1344.4	595.82	-1.672E-07	0.00022785	0.079113	0.01082	16.964	0.05895	372820	391580	1675.1	803.89	920.36	138.82	0.000025748	0.000011379	0.012441
284.43	321970	1206.5	0.00082886	214780	215050	1053.7	900.67	1345.3	594.32	-1.6553E-07	0.00022686	0.078993	0.010772	17.152	0.058301	373040	391810	1675.1	804.66	921.58	138.81	0.000025684	0.000011399	0.012468
284.77	325660	1205.4	0.00082957	215230	215500	1055.3	901.05	1346.2	592.82	-1.6384E-07	0.00022587	0.078872	0.010724	17.343	0.05766	373260	392040	1675.2	805.43	922.8	138.79	0.000025621	0.00001142	0.012495
285.11	329390	1204.4	0.00083029	215690	215960	1056.9	901.43	1347.1	591.33	-1.6215E-07	0.00022488	0.078751	0.010677	17.535	0.057028	373480	392260	1675.2	806.19	924.03	138.77	0.000025558	0.00001144	0.012522
285.45	333150	1203.4	0.00083101	216150	216420	1058.5	901.81	1348	589.83	-1.6044E-07	0.0002239	0.078631	0.010629	17.729	0.056404	373700	392490	1675.3	806.96	925.26	138.74	0.000025496	0.00001146	0.012549
285.79	336940	1202.3	0.00083173	216600	216880	1060.1	902.2	1348.9	588.34	-1.5871E-07	0.00022293	0.078511	0.010581	17.925	0.055788	373920	392710	1675.3	807.73	926.5	138.72	0.000025434	0.000011481	0.012576
286.13	340760	1201.3	0.00083246	217060	217340	1061.7	902.58	1349.8	586.84	-1.5698E-07	0.00022196	0.07839	0.010534	18.122	0.05518	374140	392940	1675.4	808.5	927.75	138.7	0.000025372	0.000011501	0.012604
286.47	344620	1200.2	0.00083318	217510	217800	1063.2	902.96	1350.7	585.34	-1.5523E-07	0.00022099	0.07827	0.010486	18.322	0.054581	374350	393160	1675.4	809.28	929	138.68	0.000025311	0.000011522	0.012631
286.81	348500	1199.2	0.00083391	217970	218260	1064.8	903.35	1351.6	583.85	-1.5347E-07	0.00022003	0.07815	0.010438	18.522	0.053989	374570	393390	1675.4	810.05	930.26	138.65	0.00002525	0.000011542	0.012658
287.15	352430	1198.1	0.00083465	218430	218720	1066.4	903.73	1352.6	582.35	-1.517E-07	0.00021908	0.07803	0.010391	18.725	0.053404	374790	393610	1675.5	810.82	931.52	138.63	0.00002519	0.000011563	0.012685
287.49	356380	1197.1	0.00083538	218880	219180	1068	904.12	1353.5	580.86	-1.4991E-07	0.00021812	0.077911	0.010344	18.93	0.052827	375010	393840	1675.5	811.6	932.79	138.6	0.000025129	0.000011583	0.012712
287.83	360370	1196	0.00083612	219340	219640	1069.6	904.5	1354.4	579.37	-1.4811E-07	0.00021718	0.077791	0.010296	19.136	0.052258	375230	394060	1675.6	812.38	934.06	138.58	0.00002507	0.000011604	0.01274
288.17	364400	1194.9	0.00083686	219800	220110	1071.2	904.89	1355.4	577.87	-1.4629E-07	0.00021623	0.077672	0.010249	19.344	0.051696	375450	394280	1675.6	813.15	935.34	138.55	0.000025011	0.000011624	0.012767
288.51	368450	1193.9	0.0008376	220260	220570	1072.8	905.27	1356.3	576.38	-1.4446E-07	0.0002153	0.077552	0.010202	19.554	0.051141	375660	394510	1675.7	813.93	936.62	138.52	0.000024952	0.000011645	0.012794
288.85	372550	1192.8	0.00083834	220720	221030	1074.4	905.66	1357.3	574.88	-1.4262E-07	0.00021436	0.077433	0.010154	19.766	0.050593	375880	394730	1675.7	814.71	937.92	138.5	0.000024893	0.000011665	0.012822
289.19	376670	1191.8	0.00083909	221180	221490	1076	906.05	1358.2	573.39	-1.4076E-07	0.00021343	0.077314	0.010107	19.979	0.050052	376100	394950	1675.8	815.49	939.21	138.47	0.000024835	0.000011686	0.012849
289.53	380830	1190.7	0.00083984	221630	221950	1077.6	906.44	1359.2	571.9	-1.3889E-07	0.00021251	0.077195	0.01006	20.194	0.049518	376320	395180	1675.9	816.27	940.52	138.44	0.000024777	0.000011706	0.012877
289.87	385030	1189.6	0.00084059	222090	222420	1079.2	906.83	1360.1	570.4	-1.3701E-07	0.00021159	0.077076	0.010013	20.412	0.048991	376540	395400	1675.9	817.05	941.83	138.41	0.00002472	0.000011727	0.012904
290.21	389260	1188.6	0.00084135	222550	222880	1080.7	907.22	1361.1	568.91	-1.3511E-07	0.00021067	0.076957	0.0099658	20.631	0.048471	376750	395620	1676	817.84	943.14	138.38	0.000024663	0.000011747	0.012932
290.55	393530	1187.5	0.00084211	223010	223340	1082.3	907.61	1362.1	567.42	-1.332E-07	0.00020976	0.076838	0.0099188	20.852	0.047957	376970	395840	1676	818.62	944.46	138.34	0.000024606	0.000011768	0.012959
290.89	397830	1186.4	0.00084287	223470	223810	1083.9	908	1363.1	565.92	-1.3127E-07	0.00020886	0.07672	0.0098718	21.075	0.047449	377190	396060	1676.1	819.41	945.79	138.31	0.00002455	0.000011788	0.012987
291.23	402170	1185.4	0.00084363	223930	224270	1085.5	908.39	1364.1	564.43	-1.2932E-07	0.00020795	0.076601	0.0098249	21.3	0.046948	377400	396280	1676.1	820.2	947.13	138.28	0.000024494	0.000011809	0.013015
291.57	406540	1184.3	0.00084439	224390	224740	1087.1	908.78	1365.1	562.94	-1.2736E-07	0.00020705	0.076483	0.0097781	21.527	0.046454	377620	396510	1676.2	820.98	948.47	138.24	0.000024439	0.000011829	0.013042
291.91	410950	1183.2	0.00084516	224860	225200	1088.7	909.17	1366.1	561.45	-1.2539E-07	0.00020616	0.076365	0.0097313	21.756	0.045965	377840	396730	1676.2	821.77	949.82	138.21	0.000024384	0.00001185	0.01307
292.25	415400	1182.1	0.00084593	225320	225670	1090.2	909.56	1367.1	559.95	-1.234E-07	0.00020527	0.076247	0.0096845	21.986	0.045483	378050	396950	1676.3	822.56	951.17	138.17	0.000024329	0.00001187	0.013098
292.59	419880	1181	0.00084671	225780	226130	1091.8	909.96	1368.1	558.46	-1.2139E-07	0.00020439	0.076129	0.0096378	22.219	0.045006	378270	397170	1676.4	823.35	952.53	138.14	0.000024275	0.000011891	0.013126
292.93	424400	1180	0.00084749	226240	226600	1093.4	910.35	1369.1	556.97	-1.1937E-07	0.00020351	0.076011	0.0095912	22.454	0.044535	378480	397390	1676.4	824.15	953.9	138.1	0.000024221	0.000011911	0.013154
293.27	428950	1178.9	0.00084826	226700	227070	1095	910.74	1370.1	555.48	-1.1733E-07	0.00020263	0.075893	0.0095445	22.691	0.044071	378700	397610	1676.5	824.94	955.27	138.06	0.000024167	0.000011932	0.013182
293.61	433550	1177.8	0.00084905	227160	227530	1096.5	911.14	1371.2	553.99	-1.1528E-07	0.00020176	0.075776	0.009498	22.93	0.043612	378920	397820	1676.5	825.73	956.66	138.02	0.000024114	0.000011953	0.01321
293.95	438180	1176.7	0.00084983	227630	228000	1098.1	911.53	1372.2	552.49	-1.1321E-07	0.00020089	0.075658	0.0094515	23.171	0.043158	379130	398040	1676.6	826.53	958.04	137.98	0.000024061	0.000011973	0.013238
294.29	442850	1175.6	0.00085062	228090	228470	1099.7	911.92	1373.3	551	-1.1112E-07	0.00020002	0.075541	0.009405	23.413	0.04271	379350	398260	1676.7	827.33	959.44	137.94	0.000024008	0.000011994	0.013266
294.63	447550	1174.5	0.00085141	228550	228940	1101.3	912.32	1374.3	549.51	-1.0902E-07	0.00019916	0.075423	0.0093586	23.658	0.042268	379560	398480	1676.7	828.12	960.84	137.9	0.000023956	0.000012014	0.013294
294.97	452290	1173.4	0.00085221	229020	229400	1102.8	912.71	1375.4	548.02	-1.0689E-07	0.00019831	0.075306	0.0093123	23.906	0.041831	379780	398700	1676.8	828.92	962.25	137.86	0.000023904	0.000012035	0.013323
295.31	457070	1172.3	0.000853	229480	229870	1104.4	913.11	1376.4	546.53	-1.0476E-07	0.00019746	0.075189	0.009266	24.155	0.0414	379990	398910	1676.8	829.72	963.67	137.82	0.000023853	0.000012055	0.013351
295.65	461890	1171.2	0.0008538	229950	230340	1106	913.5	1377.5	545.04	-1.026E-07	0.00019661	0.075072	0.0092197	24.406	0.040973	380210	399130	1676.9	830.52	965.09	137.77	0.000023802	0.000012076	0.013379
295.99	466750	1170.1	0.00085461	230410	230810	1107.6	913.9	1378.6	543.54	-1.0043E-07	0.00019576	0.074956	0.0091735	24.66	0.040552	380420	399350	1677	831.33	966.53	137.73	0.000023751	0.000012097	0.013408
296.33	471650	1169	0.00085541	230880	231280	1109.1	914.29	1379.7	542.05	-9.8233E-08	0.00019492	0.074839	0.0091274	24.915	0.040136	380640	399570	1677	832.13	967.97	137.69	0.000023701	0.000012117	0.013436
296.67	476580	1167.9	0.00085622	231340	231750	1110.7	914.69	1380.7	540.56	-9.6023E-08	0.00019409	0.074722	0.0090813	25.173	0.039725	380850	399780	1677.1	832.94	969.41	137.64	0.000023651	0.000012138	0.013465
297.01	481560	1166.8	0.00085703	231810	232220	1112.3	915.08	1381.8	539.07	-9.3795E-08	0.00019326	0.074606	0.0090352	25.433	0.039319	381060	400000	1677.2	833.74	970.87	137.59	0.000023601	0.000012159	0.013493
297.35	486570	1165.7	0.00085785	232270	232690	1113.8	915.48	1383	537.58	-9.1548E-08	0.00019243	0.07449	0.0089892	25.695	0.038918	381280	400210	1677.2	834.55	972.33	137.55	0.000023552	0.000012179	0.013522
297.69	491620	1164.6	0.00085867	232740	233160	1115.4	915.87	1384.1	536.09	-8.9283E-08	0.0001916	0.074373	0.0089433	25.959	0.038522	381490	400430	1677.3	835.36	973.8	137.5	0.000023503	0.0000122	0.013551
298.03	496710	1163.5	0.00085949	233210	233630	1117	916.27	1385.2	534.6	-8.6998E-08	0.00019078	0.074257	0.0088974	26.226	0.03813	381700	400640	1677.4	836.17	975.28	137.45	0.000023454	0.000012221	0.01358
298.37	501850	1162.4	0.00086031	233670	234100	1118.6	916.66	1386.3	533.1	-8.4694E-08	0.00018997	0.074141	0.0088515	26.495	0.037743	381920	400860	1677.4	836.98	976.77	137.4	0.000023406	0.000012241	0.013608
298.71	507020	1161.3	0.00086114	234140	234580	1120.1	917.06	1387.4	531.61	-8.2371E-08	0.00018916	0.074025	0.0088057	26.766	0.037361	382130	401070	1677.5	837.79	978.26	137.35	0.000023358	0.000012262	0.013637
299.05	512230	1160.1	0.00086197	234610	235050	1121.7	917.46	1388.6	530.12	-8.0028E-08	0.00018835	0.07391	0.00876	27.04	0.036983	382340	401290	1677.6	838.6	979.76	137.3	0.00002331	0.000012283	0.013666
299.39	517480	1159	0.00086281	235080	235520	1123.2	917.85	1389.7	528.63	-7.7665E-08	0.00018754	0.073794	0.0087143	27.315	0.03661	382550	401500	1677.6	839.41	981.27	137.24	0.000023263	0.000012304	0.013695
299.73	522780	1157.9	0.00086364	235540	236000	1124.8	918.25	1390.9	527.14	-7.5282E-08	0.00018674	0.073678	0.0086687	27.593	0.036241	382770	401710	1677.7	840.23	982.79	137.19	0.000023216	0.000012324	0.013725
300.07	528110	1156.8	0.00086448	236010	236470	1126.4	918.64	1392	525.64	-7.2878E-08	0.00018594	0.073563	0.0086231	27.874	0.035876	382980	401920	1677.8	841.05	984.32	137.14	0.000023169	0.000012345	0.013754
300.41	533490	1155.6	0.00086533	236480	236940	1127.9	919.04	1393.2	524.15	-7.0454E-08	0.00018515	0.073448	0.0085776	28.156	0.035516	383190	402140	1677.8	841.86	985.86	137.08	0.000023123	0.000012366	0.013783
300.75	538900	1154.5	0.00086618	236950	237420	1129.5	919.43	1394.4	522.66	-6.8009E-08	0.00018436	0.073333	0.0085321	28.442	0.03516	383400	402350	1677.9	842.68	987.4	137.03	0.000023077	0.000012387	0.013812
301.09	544360	1153.4	0.00086703	237420	237890	1131.1	919.83	1395.6	521.17	-6.5542E-08	0.00018357	0.073218	0.0084867	28.729	0.034808	383610	402560	1678	843.5	988.96	136.97	0.000023032	0.000012407	0.013842
301.43	549860	1152.2	0.00086788	237890	238370	1132.6	920.22	1396.8	519.67	-6.3055E-08	0.00018279	0.073103	0.0084413	29.019	0.03446	383820	402770	1678	844.32	990.52	136.91	0.000022987	0.000012428	0.013871
301.77	555400	1151.1	0.00086874	238360	238840	1134.2	920.62	1398	518.18	-6.0545E-08	0.00018201	0.072988	0.008396	29.311	0.034117	384030	402980	1678.1	845.14	992.09	136.85	0.000022942	0.000012449	0.013901
302.11	560980	1150	0.0008696	238830	239320	1135.7	921.02	1399.2	516.69	-5.8013E-08	0.00018124	0.072873	0.0083507	29.606	0.033777	384240	403190	1678.2	845.97	993.67	136.8	0.000022897	0.00001247	0.013931
302.45	566610	1148.8	0.00087047	239300	239800	1137.3	921.41	1400.4	515.19	-5.5459E-08	0.00018047	0.072758	0.0083055	29.903	0.033441	384460	403400	1678.2	846.79	995.26	136.74	0.000022853	0.000012491	0.01396
302.79	572280	1147.7	0.00087133	239770	240270	1138.9	921.81	1401.6	513.7	-5.2883E-08	0.0001797	0.072644	0.0082604	30.203	0.033109	384670	403610	1678.3	847.62	996.86	136.68	0.000022809	0.000012511	0.01399
303.13	577990	1146.5	0.00087221	240250	240750	1140.4	922.2	1402.8	512.2	-5.0284E-08	0.00017893	0.07253	0.0082153	30.505	0.032781	384880	403820	1678.4	848.44	998.47	136.61	0.000022766	0.000012532	0.01402
303.47	583740	1145.4	0.00087308	240720	241230	1142	922.6	1404.1	510.71	-4.7661E-08	0.00017817	0.072415	0.0081702	30.81	0.032457	385080	404030	1678.5	849.27	1000.1	136.55	0.000022723	0.000012553	0.01405
303.81	589540	1144.2	0.00087396	241190	241700	1143.5	922.99	1405.3	509.21	-4.5015E-08	0.00017742	0.072301	0.0081252	31.117	0.032136	385290	404240	1678.5	850.1	1001.7	136.49	0.00002268	0.000012574	0.01408
304.15	595380	1143.1	0.00087484	241660	242180	1145.1	923.38	1406.6	507.72	-4.2346E-08	0.00017666	0.072187	0.0080803	31.427	0.031819	385500	404450	1678.6	850.93	1003.4	136.42	0.000022638	0.000012595	0.014111
304.49	601260	1141.9	0.00087573	242140	242660	1146.7	923.78	1407.8	506.22	-3.9652E-08	0.00017591	0.072073	0.0080354	31.74	0.031506	385710	404660	1678.7	851.76	1005	136.36	0.000022596	0.000012616	0.014141
304.83	607190	1140.7	0.00087662	242610	243140	1148.2	924.17	1409.1	504.73	-3.6934E-08	0.00017516	0.071959	0.0079906	32.055	0.031197	385920	404860	1678.7	852.59	1006.7	136.29	0.000022554	0.000012637	0.014171
305.17	613160	1139.6	0.00087752	243080	243620	1149.8	924.57	1410.4	503.23	-3.4191E-08	0.00017442	0.071846	0.0079458	32.373	0.03089	386130	405070	1678.8	853.42	1008.3	136.23	0.000022512	0.000012658	0.014202
305.51	619180	1138.4	0.00087841	243560	244100	1151.3	924.96	1411.7	501.73	-3.1424E-08	0.00017368	0.071732	0.0079011	32.693	0.030588	386340	405280	1678.9	854.26	1010	136.16	0.000022471	0.000012679	0.014232
305.85	625240	1137.2	0.00087932	244030	244580	1152.9	925.35	1413	500.23	-2.8631E-08	0.00017294	0.071619	0.0078564	33.016	0.030288	386550	405480	1679	855.09	1011.7	136.09	0.000022431	0.0000127	0.014263
306.19	631340	1136.1	0.00088022	244510	245060	1154.4	925.75	1414.3	498.74	-2.5812E-08	0.00017221	0.071505	0.0078118	33.342	0.029993	386750	405690	1679	855.93	1013.4	136.02	0.00002239	0.000012721	0.014294
306.53	637490	1134.9	0.00088113	244980	245540	1156	926.14	1415.6	497.24	-2.2968E-08	0.00017148	0.071392	0.0077673	33.67	0.0297	386960	405890	1679.1	856.77	1015.1	135.95	0.00002235	0.000012741	0.014325
306.87	643680	1133.7	0.00088205	245460	246030	1157.5	926.53	1416.9	495.74	-2.0097E-08	0.00017075	0.071279	0.0077228	34.001	0.029411	387170	406100	1679.2	857.6	1016.8	135.88	0.00002231	0.000012762	0.014356
307.21	649920	1132.6	0.00088296	245930	246510	1159.1	926.93	1418.3	494.24	-1.7199E-08	0.00017003	0.071166	0.0076783	34.335	0.029125	387370	406300	1679.2	858.44	1018.6	135.81	0.000022271	0.000012784	0.014387
307.55	656210	1131.4	0.00088388	246410	246990	1160.6	927.32	1419.6	492.74	-1.4275E-08	0.00016931	0.071053	0.0076339	34.672	0.028842	387580	406510	1679.3	859.28	1020.3	135.73	0.000022232	0.000012805	0.014418
307.89	662540	1130.2	0.00088481	246890	247470	1162.2	927.71	1421	491.23	-1.1323E-08	0.00016859	0.07094	0.0075896	35.011	0.028562	387790	406710	1679.4	860.13	1022	135.66	0.000022193	0.000012826	0.014449
308.23	668910	1129	0.00088574	247360	247960	1163.7	928.1	1422.3	489.73	-8.3434E-09	0.00016788	0.070827	0.0075453	35.353	0.028286	387990	406910	1679.5	860.97	1023.8	135.59	0.000022155	0.000012847	0.014481
308.57	675340	1127.8	0.00088667	247840	248440	1165.3	928.5	1423.7	488.23	-5.3357E-09	0.00016717	0.070715	0.0075011	35.698	0.028013	388200	407120	1679.5	861.81	1025.6	135.51	0.000022117	0.000012868	0.014512
308.91	681810	1126.6	0.00088761	248320	248920	1166.8	928.89	1425.1	486.73	-2.2997E-09	0.00016646	0.070602	0.007457	36.046	0.027742	388400	407320	1679.6	862.66	1027.4	135.43	0.000022079	0.000012889	0.014544
309.25	688320	1125.4	0.00088855	248800	249410	1168.4	929.28	1426.5	485.22	7.6526E-10	0.00016575	0.07049	0.0074129	36.397	0.027475	388610	407520	1679.7	863.5	1029.2	135.36	0.000022042	0.00001291	0.014576
309.59	694880	1124.2	0.0008895	249280	249890	1169.9	929.67	1427.9	483.72	3.8594E-09	0.00016505	0.070378	0.0073688	36.751	0.02721	388810	407720	1679.7	864.35	1031	135.28	0.000022005	0.000012931	0.014607
309.93	701490	1123	0.00089045	249760	250380	1171.5	930.06	1429.3	482.21	6.9832E-09	0.00016436	0.070265	0.0073249	37.108	0.026949	389020	407920	1679.8	865.2	1032.8	135.2	0.000021968	0.000012952	0.01464
310.27	708150	1121.8	0.00089141	250240	250870	1173	930.45	1430.7	480.71	1.0137E-08	0.00016366	0.070153	0.0072809	37.467	0.02669	389220	408120	1679.9	866.05	1034.7	135.12	0.000021932	0.000012973	0.014672
310.61	714850	1120.6	0.00089237	250720	251350	1174.6	930.84	1432.1	479.2	1.3321E-08	0.00016297	0.070041	0.0072371	37.83	0.026434	389430	408320	1680	866.9	1036.5	135.04	0.000021896	0.000012995	0.014704
310.95	721600	1119.4	0.00089333	251200	251840	1176.1	931.24	1433.6	477.69	1.6536E-08	0.00016228	0.06993	0.0071933	38.196	0.026181	389630	408520	1680	867.75	1038.4	134.95	0.00002186	0.000013016	0.014736
311.29	728400	1118.2	0.0008943	251680	252330	1177.7	931.63	1435	476.18	1.9783E-08	0.00016159	0.069818	0.0071495	38.564	0.025931	389830	408720	1680.1	868.61	1040.2	134.87	0.000021825	0.000013037	0.014769
311.63	735250	1117	0.00089527	252160	252820	1179.2	932.02	1436.5	474.67	2.3061E-08	0.00016091	0.069706	0.0071058	38.936	0.025683	390040	408920	1680.2	869.46	1042.1	134.79	0.00002179	0.000013058	0.014801
311.97	742140	1115.8	0.00089625	252640	253300	1180.8	932.41	1438	473.16	2.6371E-08	0.00016023	0.069595	0.0070622	39.311	0.025438	390240	409120	1680.2	870.31	1044	134.7	0.000021756	0.000013079	0.014834
312.31	749090	1114.5	0.00089723	253120	253790	1182.3	932.8	1439.4	471.65	2.9713E-08	0.00015955	0.069483	0.0070186	39.689	0.025196	390440	409320	1680.3	871.17	1045.9	134.62	0.000021721	0.000013101	0.014867
312.65	756080	1113.3	0.00089822	253600	254280	1183.9	933.19	1440.9	470.14	3.3089E-08	0.00015888	0.069372	0.0069751	40.07	0.024956	390640	409510	1680.4	872.03	1047.9	134.53	0.000021687	0.000013122	0.0149
312.99	763120	1112.1	0.00089921	254090	254770	1185.4	933.58	1442.4	468.62	3.6498E-08	0.00015821	0.069261	0.0069316	40.454	0.024719	390850	409710	1680.4	872.89	1049.8	134.44	0.000021654	0.000013143	0.014933
313.33	770210	1110.9	0.00090021	254570	255260	1187	933.97	1443.9	467.11	3.9942E-08	0.00015754	0.06915	0.0068883	40.841	0.024485	391050	409910	1680.5	873.75	1051.8	134.35	0.000021621	0.000013165	0.014967
313.67	777350	1109.6	0.00090121	255050	255750	1188.5	934.36	1445.5	465.59	4.3419E-08	0.00015688	0.069039	0.0068449	41.232	0.024253	391250	410100	1680.6	874.61	1053.8	134.26	0.000021588	0.000013186	0.015
314.01	784540	1108.4	0.00090221	255540	256240	1190	934.75	1447	464.08	4.6932E-08	0.00015621	0.068928	0.0068016	41.626	0.024024	391450	410300	1680.6	875.47	1055.7	134.17	0.000021555	0.000013207	0.015034
314.35	791780	1107.1	0.00090322	256020	256740	1191.6	935.14	1448.6	462.56	5.048E-08	0.00015555	0.068817	0.0067584	42.023	0.023796	391650	410490	1680.7	876.34	1057.7	134.08	0.000021523	0.000013229	0.015068
314.69	799070	1105.9	0.00090424	256510	257230	1193.1	935.53	1450.1	461.04	5.4064E-08	0.0001549	0.068706	0.0067153	42.423	0.023572	391850	410690	1680.8	877.2	1059.8	133.99	0.000021491	0.00001325	0.015102
315.03	806410	1104.7	0.00090526	256990	257720	1194.7	935.91	1451.7	459.52	5.7684E-08	0.00015424	0.068596	0.0066722	42.827	0.02335	392050	410880	1680.8	878.07	1061.8	133.89	0.00002146	0.000013272	0.015136
315.37	813800	1103.4	0.00090629	257480	258210	1196.2	936.3	1453.3	458	6.1341E-08	0.00015359	0.068485	0.0066292	43.234	0.02313	392250	411070	1680.9	878.94	1063.8	133.8	0.000021429	0.000013293	0.01517
315.71	821240	1102.2	0.00090732	257960	258710	1197.8	936.69	1454.9	456.47	6.5036E-08	0.00015295	0.068375	0.0065862	43.645	0.022912	392450	411260	1681	879.81	1065.9	133.7	0.000021398	0.000013314	0.015204
316.05	828730	1100.9	0.00090835	258450	259200	1199.3	937.08	1456.5	454.95	6.8769E-08	0.0001523	0.068265	0.0065433	44.059	0.022697	392650	411460	1681.1	880.68	1068	133.61	0.000021367	0.000013336	0.015239
316.39	836270	1099.6	0.00090939	258940	259700	1200.9	937.47	1458.1	453.42	7.254E-08	0.00015166	0.068155	0.0065004	44.476	0.022484	392840	411650	1681.1	881.56	1070.1	133.51	0.000021337	0.000013357	0.015274
316.73	843870	1098.4	0.00091044	259420	260190	1202.4	937.86	1459.7	451.9	7.635E-08	0.00015102	0.068045	0.0064576	44.897	0.022273	393040	411840	1681.2	882.43	1072.2	133.41	0.000021308	0.000013379	0.015309
317.07	851510	1097.1	0.00091149	259910	260690	1203.9	938.25	1461.4	450.37	8.0201E-08	0.00015038	0.067935	0.0064149	45.321	0.022065	393240	412030	1681.2	883.31	1074.3	133.31	0.000021278	0.000013401	0.015344
317.41	859210	1095.8	0.00091255	260400	261180	1205.5	938.64	1463	448.84	8.4091E-08	0.00014974	0.067825	0.0063722	45.749	0.021858	393440	412220	1681.3	884.19	1076.5	133.21	0.000021249	0.000013422	0.015379
317.75	866960	1094.6	0.00091361	260890	261680	1207	939.03	1464.7	447.31	8.8022E-08	0.00014911	0.067715	0.0063297	46.181	0.021654	393630	412410	1681.4	885.07	1078.7	133.11	0.00002122	0.000013444	0.015415
318.09	874760	1093.3	0.00091468	261380	262180	1208.6	939.42	1466.4	445.78	9.1995E-08	0.00014848	0.067606	0.0062871	46.616	0.021452	393830	412600	1681.4	885.95	1080.9	133.01	0.000021192	0.000013465	0.01545
318.43	882620	1092	0.00091575	261870	262680	1210.1	939.81	1468.1	444.24	9.601E-08	0.00014786	0.067496	0.0062446	47.054	0.021252	394030	412780	1681.5	886.83	1083.1	132.9	0.000021164	0.000013487	0.015486
318.77	890530	1090.7	0.00091683	262360	263170	1211.6	940.2	1469.8	442.71	1.0007E-07	0.00014723	0.067387	0.0062022	47.497	0.021054	394220	412970	1681.6	887.72	1085.3	132.8	0.000021136	0.000013509	0.015522
319.11	898490	1089.4	0.00091791	262850	263670	1213.2	940.6	1471.5	441.17	1.0417E-07	0.00014661	0.067277	0.0061599	47.943	0.020858	394420	413160	1681.6	888.61	1087.5	132.69	0.000021109	0.00001353	0.015558
319.45	906500	1088.1	0.000919	263340	264170	1214.7	940.99	1473.3	439.63	1.0831E-07	0.00014599	0.067168	0.0061176	48.392	0.020664	394610	413340	1681.7	889.5	1089.8	132.59	0.000021082	0.000013552	0.015595
319.79	914570	1086.8	0.0009201	263830	264670	1216.3	941.38	1475	438.09	1.125E-07	0.00014537	0.067059	0.0060754	48.846	0.020473	394810	413530	1681.8	890.39	1092.1	132.48	0.000021055	0.000013574	0.015631
320.13	922690	1085.5	0.0009212	264320	265170	1217.8	941.77	1476.8	436.55	1.1674E-07	0.00014476	0.06695	0.0060332	49.303	0.020283	395000	413710	1681.8	891.28	1094.4	132.37	0.000021029	0.000013596	0.015668
320.47	930860	1084.2	0.00092231	264810	265670	1219.4	942.16	1478.6	435.01	1.2102E-07	0.00014415	0.066841	0.0059911	49.764	0.020095	395190	413900	1681.9	892.18	1096.7	132.26	0.000021003	0.000013618	0.015705
320.81	939090	1082.9	0.00092342	265310	266180	1220.9	942.56	1480.4	433.47	1.2535E-07	0.00014354	0.066732	0.0059491	50.229	0.019909	395390	414080	1681.9	893.08	1099.1	132.15	0.000020977	0.000013639	0.015742
321.15	947380	1081.6	0.00092454	265800	266680	1222.4	942.95	1482.2	431.92	1.2973E-07	0.00014293	0.066623	0.0059072	50.698	0.019725	395580	414260	1682	893.98	1101.5	132.04	0.000020952	0.000013661	0.01578
321.49	955720	1080.3	0.00092567	266300	267180	1224	943.34	1484	430.37	1.3415E-07	0.00014233	0.066515	0.0058653	51.171	0.019542	395770	414450	1682	894.88	1103.9	131.92	0.000020927	0.000013683	0.015817
321.83	964110	1079	0.0009268	266790	267680	1225.5	943.74	1485.9	428.82	1.3862E-07	0.00014173	0.066406	0.0058234	51.648	0.019362	395960	414630	1682.1	895.79	1106.3	131.81	0.000020903	0.000013705	0.015855
322.17	972560	1077.7	0.00092794	267280	268190	1227.1	944.13	1487.7	427.27	1.4315E-07	0.00014113	0.066298	0.0057817	52.129	0.019183	396150	414810	1682.2	896.7	1108.7	131.7	0.000020878	0.000013727	0.015893
322.51	981060	1076.3	0.00092908	267780	268690	1228.6	944.53	1489.6	425.72	1.4772E-07	0.00014053	0.066189	0.00574	52.614	0.019006	396340	414990	1682.2	897.61	1111.2	131.58	0.000020854	0.000013749	0.015932
322.85	989620	1075	0.00093023	268280	269200	1230.1	944.92	1491.5	424.16	1.5234E-07	0.00013994	0.066081	0.0056983	53.103	0.018831	396530	415170	1682.3	898.52	1113.7	131.46	0.000020831	0.000013771	0.01597
323.19	998240	1073.7	0.00093139	268770	269700	1231.7	945.32	1493.4	422.61	1.5702E-07	0.00013934	0.065973	0.0056568	53.596	0.018658	396720	415350	1682.3	899.44	1116.2	131.34	0.000020808	0.000013793	0.016009
323.53	1006900	1072.3	0.00093255	269270	270210	1233.2	945.72	1495.4	421.05	1.6175E-07	0.00013875	0.065865	0.0056153	54.093	0.018487	396910	415530	1682.4	900.36	1118.7	131.22	0.000020785	0.000013815	0.016048
323.87	1015600	1071	0.00093372	269770	270710	1234.8	946.11	1497.3	419.49	1.6654E-07	0.00013817	0.065757	0.0055738	54.595	0.018317	397100	415710	1682.4	901.28	1121.3	131.1	0.000020762	0.000013837	0.016087
324.21	1024400	1069.6	0.0009349	270260	271220	1236.3	946.51	1499.3	417.93	1.7138E-07	0.00013758	0.065649	0.0055325	55.101	0.018149	397290	415880	1682.5	902.21	1123.9	130.98	0.00002074	0.000013859	0.016127
324.55	1033300	1068.3	0.00093608	270760	271730	1237.8	946.91	1501.2	416.36	1.7627E-07	0.000137	0.065541	0.0054912	55.611	0.017982	397480	416060	1682.5	903.14	1126.5	130.86	0.000020718	0.000013882	0.016167
324.89	1042200	1066.9	0.00093727	271260	272240	1239.4	947.31	1503.2	414.8	1.8122E-07	0.00013642	0.065434	0.00545	56.125	0.017817	397670	416230	1682.6	904.07	1129.1	130.74	0.000020696	0.000013904	0.016207
325.23	1051100	1065.6	0.00093847	271760	272750	1240.9	947.71	1505.3	413.23	1.8623E-07	0.00013584	0.065326	0.0054088	56.644	0.017654	397850	416410	1682.6	905	1131.8	130.61	0.000020675	0.000013926	0.016247
325.57	1060100	1064.2	0.00093967	272260	273260	1242.5	948.12	1507.3	411.66	1.913E-07	0.00013526	0.065219	0.0053677	57.167	0.017493	398040	416580	1682.7	905.94	1134.5	130.49	0.000020654	0.000013948	0.016288
325.91	1069200	1062.8	0.00094088	272760	273770	1244	948.52	1509.3	410.09	1.9642E-07	0.00013469	0.065111	0.0053267	57.695	0.017333	398220	416760	1682.7	906.89	1137.3	130.36	0.000020633	0.000013971	0.016328
326.25	1078300	1061.5	0.0009421	273260	274280	1245.5	948.92	1511.4	408.51	2.0161E-07	0.00013411	0.065004	0.0052857	58.227	0.017174	398410	416930	1682.8	907.83	1140	130.23	0.000020613	0.000013993	0.01637
326.59	1087500	1060.1	0.00094333	273760	274790	1247.1	949.33	1513.5	406.94	2.0686E-07	0.00013354	0.064897	0.0052449	58.763	0.017017	398590	417100	1682.8	908.78	1142.8	130.1	0.000020593	0.000014015	0.016411
326.93	1096800	1058.7	0.00094456	274260	275300	1248.6	949.74	1515.6	405.36	2.1217E-07	0.00013297	0.06479	0.005204	59.305	0.016862	398780	417270	1682.9	909.74	1145.6	129.97	0.000020573	0.000014038	0.016453
327.27	1106100	1057.3	0.0009458	274770	275810	1250.2	950.14	1517.8	403.78	2.1755E-07	0.00013241	0.064683	0.0051633	59.851	0.016708	398960	417440	1682.9	910.69	1148.5	129.84	0.000020554	0.00001406	0.016495
327.61	1115400	1055.9	0.00094705	275270	276330	1251.7	950.55	1519.9	402.2	2.2299E-07	0.00013184	0.064576	0.0051226	60.401	0.016556	399150	417610	1683	911.66	1151.4	129.71	0.000020535	0.000014083	0.016537
327.95	1124900	1054.5	0.0009483	275770	276840	1253.2	950.96	1522.1	400.61	2.2849E-07	0.00013128	0.064469	0.005082	60.957	0.016405	399330	417780	1683	912.62	1154.3	129.57	0.000020516	0.000014105	0.016579
328.29	1134300	1053.1	0.00094957	276280	277350	1254.8	951.37	1524.3	399.03	2.3406E-07	0.00013072	0.064362	0.0050415	61.517	0.016256	399510	417950	1683	913.59	1157.3	129.44	0.000020498	0.000014128	0.016622
328.63	1143900	1051.7	0.00095084	276780	277870	1256.3	951.79	1526.5	397.44	2.397E-07	0.00013016	0.064255	0.005001	62.082	0.016108	399690	418120	1683.1	914.57	1160.2	129.3	0.000020479	0.00001415	0.016666
328.97	1153500	1050.3	0.00095212	277290	278390	1257.9	952.2	1528.8	395.85	2.4541E-07	0.00012961	0.064149	0.0049606	62.652	0.015961	399870	418280	1683.1	915.55	1163.3	129.17	0.000020462	0.000014173	0.016709
329.31	1163200	1048.9	0.0009534	277790	278900	1259.4	952.62	1531	394.25	2.5119E-07	0.00012905	0.064042	0.0049203	63.227	0.015816	400050	418450	1683.2	916.53	1166.3	129.03	0.000020444	0.000014196	0.016753
329.65	1172900	1047.5	0.0009547	278300	279420	1260.9	953.03	1533.3	392.66	2.5704E-07	0.0001285	0.063936	0.0048801	63.806	0.015672	400230	418620	1683.2	917.52	1169.4	128.89	0.000020427	0.000014218	0.016797
329.99	1182700	1046	0.000956	278810	279940	1262.5	953.45	1535.6	391.06	2.6297E-07	0.00012795	0.06383	0.0048399	64.391	0.01553	400410	418780	1683.2	918.51	1172.6	128.75	0.00002041	0.000014241	0.016842
330.33	1192500	1044.6	0.00095731	279310	280460	1264	953.87	1538	389.46	2.6897E-07	0.0001274	0.063724	0.0047998	64.981	0.015389	400590	418940	1683.3	919.51	1175.7	128.6	0.000020393	0.000014264	0.016886
330.67	1202400	1043.2	0.00095863	279820	280970	1265.6	954.29	1540.3	387.86	2.7504E-07	0.00012686	0.063617	0.0047598	65.576	0.015249	400770	419110	1683.3	920.51	1178.9	128.46	0.000020377	0.000014287	0.016932
331.01	1212400	1041.7	0.00095996	280330	281490	1267.1	954.72	1542.7	386.25	2.8119E-07	0.00012631	0.063511	0.0047198	66.176	0.015111	400950	419270	1683.3	921.52	1182.2	128.32	0.000020361	0.00001431	0.016977
331.35	1222400	1040.3	0.00096129	280840	282020	1268.6	955.14	1545.1	384.64	2.8743E-07	0.00012577	0.063405	0.00468	66.782	0.014974	401120	419430	1683.4	922.53	1185.5	128.17	0.000020345	0.000014332	0.017023
331.69	1232500	1038.8	0.00096264	281350	282540	1270.2	955.57	1547.5	383.03	2.9374E-07	0.00012523	0.0633	0.0046402	67.393	0.014838	401300	419590	1683.4	923.54	1188.8	128.02	0.00002033	0.000014355	0.017069
332.03	1242700	1037.4	0.00096399	281860	283060	1271.7	956	1550	381.42	3.0013E-07	0.00012469	0.063194	0.0046004	68.009	0.014704	401470	419750	1683.4	924.57	1192.2	127.88	0.000020315	0.000014379	0.017116
332.37	1252900	1035.9	0.00096535	282370	283580	1273.3	956.43	1552.5	379.8	3.066E-07	0.00012415	0.063088	0.0045608	68.631	0.014571	401650	419900	1683.4	925.6	1195.6	127.73	0.0000203	0.000014402	0.017163
332.71	1263200	1034.4	0.00096672	282880	284100	1274.8	956.86	1555	378.19	3.1316E-07	0.00012362	0.062983	0.0045212	69.258	0.014439	401820	420060	1683.5	926.63	1199.1	127.58	0.000020285	0.000014425	0.017211
333.05	1273500	1032.9	0.0009681	283400	284630	1276.4	957.3	1557.6	376.57	3.1981E-07	0.00012309	0.062877	0.0044817	69.891	0.014308	402000	420220	1683.5	927.67	1202.6	127.42	0.000020271	0.000014448	0.017258
333.39	1283900	1031.5	0.00096949	283910	285150	1277.9	957.74	1560.1	374.94	3.2654E-07	0.00012255	0.062772	0.0044423	70.529	0.014179	402170	420370	1683.5	928.71	1206.1	127.27	0.000020257	0.000014471	0.017307
333.73	1294400	1030	0.00097089	284420	285680	1279.5	958.18	1562.7	373.32	3.3336E-07	0.00012202	0.062666	0.0044029	71.173	0.01405	402340	420530	1683.5	929.76	1209.7	127.12	0.000020243	0.000014494	0.017355
334.07	1304900	1028.5	0.0009723	284940	286200	1281	958.62	1565.4	371.69	3.4027E-07	0.0001215	0.062561	0.0043637	71.823	0.013923	402510	420680	1683.5	930.82	1213.4	126.96	0.00002023	0.000014518	0.017404
334.41	1315500	1027	0.00097372	285450	286730	1282.5	959.06	1568	370.06	3.4728E-07	0.00012097	0.062456	0.0043245	72.479	0.013797	402680	420830	1683.6	931.88	1217.1	126.81	0.000020216	0.000014541	0.017454
334.75	1326200	1025.5	0.00097515	285970	287260	1284.1	959.51	1570.7	368.43	3.5438E-07	0.00012044	0.062351	0.0042853	73.14	0.013672	402850	420990	1683.6	932.95	1220.8	126.65	0.000020204	0.000014565	0.017504
335.09	1336900	1024	0.00097659	286480	287790	1285.6	959.96	1573.4	366.79	3.6158E-07	0.00011992	0.062246	0.0042463	73.807	0.013549	403020	421140	1683.6	934.02	1224.6	126.49	0.000020191	0.000014588	0.017554
335.43	1347700	1022.5	0.00097804	287000	288320	1287.2	960.41	1576.2	365.15	3.6887E-07	0.0001194	0.062141	0.0042074	74.481	0.013426	403190	421290	1683.6	935.1	1228.5	126.33	0.000020178	0.000014612	0.017605
335.77	1358600	1020.9	0.00097949	287520	288850	1288.7	960.86	1579	363.51	3.7627E-07	0.00011888	0.062036	0.0041685	75.16	0.013305	403360	421440	1683.6	936.19	1232.4	126.17	0.000020166	0.000014635	0.017656
336.11	1369500	1019.4	0.00098096	288030	289380	1290.3	961.32	1581.8	361.87	3.8376E-07	0.00011836	0.061932	0.0041297	75.846	0.013185	403530	421580	1683.6	937.28	1236.4	126	0.000020155	0.000014659	0.017708
336.45	1380500	1017.9	0.00098244	288550	289910	1291.8	961.78	1584.7	360.22	3.9137E-07	0.00011784	0.061827	0.0040909	76.538	0.013065	403690	421730	1683.6	938.38	1240.4	125.84	0.000020143	0.000014683	0.01776
336.79	1391600	1016.3	0.00098393	289070	290440	1293.4	962.24	1587.6	358.57	3.9907E-07	0.00011732	0.061722	0.0040523	77.236	0.012947	403860	421880	1683.6	939.48	1244.4	125.67	0.000020132	0.000014706	0.017813
337.13	1402700	1014.8	0.00098543	289590	290970	1294.9	962.71	1590.5	356.92	4.0689E-07	0.00011681	0.061618	0.0040137	77.941	0.01283	404020	422020	1683.6	940.59	1248.6	125.5	0.000020121	0.00001473	0.017866
337.47	1413900	1013.2	0.00098694	290110	291510	1296.5	963.18	1593.4	355.26	4.1482E-07	0.0001163	0.061513	0.0039753	78.652	0.012714	404190	422160	1683.6	941.71	1252.8	125.34	0.00002011	0.000014754	0.01792
337.81	1425100	1011.7	0.00098847	290630	292040	1298	963.65	1596.4	353.6	4.2286E-07	0.00011579	0.061409	0.0039369	79.369	0.012599	404350	422310	1683.6	942.84	1257	125.17	0.000020099	0.000014778	0.017974
338.15	1436500	1010.1	0.00099	291160	292580	1299.6	964.12	1599.5	351.94	4.3102E-07	0.00011528	0.061305	0.0038986	80.093	0.012485	404510	422450	1683.6	943.97	1261.3	125	0.000020089	0.000014802	0.018029
338.49	1447800	1008.5	0.00099154	291680	293120	1301.1	964.6	1602.6	350.28	4.3929E-07	0.00011477	0.061201	0.0038603	80.824	0.012373	404680	422590	1683.6	945.1	1265.7	124.82	0.000020079	0.000014826	0.018085
338.83	1459300	1006.9	0.0009931	292200	293650	1302.7	965.08	1605.7	348.61	4.4769E-07	0.00011426	0.061097	0.0038222	81.562	0.012261	404840	422730	1683.6	946.25	1270.1	124.65	0.000020069	0.000014851	0.01814
339.17	1470800	1005.4	0.00099467	292730	294190	1304.2	965.57	1608.9	346.94	4.562E-07	0.00011375	0.060993	0.0037841	82.306	0.01215	405000	422870	1683.6	947.4	1274.6	124.47	0.00002006	0.000014875	0.018197
339.51	1482400	1003.8	0.00099625	293250	294730	1305.8	966.05	1612.1	345.27	4.6485E-07	0.00011325	0.060889	0.0037461	83.058	0.01204	405160	423000	1683.6	948.56	1279.2	124.3	0.00002005	0.000014899	0.018254
339.85	1494100	1002.2	0.00099784	293780	295270	1307.4	966.55	1615.3	343.59	4.7362E-07	0.00011275	0.060785	0.0037082	83.816	0.011931	405310	423140	1683.6	949.72	1283.9	124.12	0.000020041	0.000014924	0.018312
340.19	1505800	1000.6	0.00099945	294310	295810	1308.9	967.04	1618.6	341.91	4.8252E-07	0.00011224	0.060681	0.0036704	84.582	0.011823	405470	423270	1683.6	950.9	1288.6	123.94	0.000020033	0.000014948	0.01837
340.53	1517600	998.94	0.0010011	294830	296350	1310.5	967.54	1621.9	340.23	4.9155E-07	0.00011174	0.060578	0.0036327	85.355	0.011716	405630	423410	1683.6	952.08	1293.4	123.76	0.000020024	0.000014973	0.018429
340.87	1529500	997.31	0.0010027	295360	296890	1312	968.04	1625.3	338.54	5.0073E-07	0.00011124	0.060474	0.003595	86.135	0.01161	405780	423540	1683.6	953.26	1298.2	123.58	0.000020016	0.000014997	0.018488
341.21	1541500	995.68	0.0010043	295890	297440	1313.6	968.55	1628.7	336.85	5.1004E-07	0.00011075	0.060371	0.0035575	86.923	0.011504	405940	423670	1683.5	954.46	1303.2	123.39	0.000020008	0.000015022	0.018548
341.55	1553500	994.04	0.001006	296420	297980	1315.1	969.06	1632.2	335.16	5.1949E-07	0.00011025	0.060267	0.00352	87.718	0.0114	406090	423800	1683.5	955.66	1308.2	123.21	0.00002	0.000015047	0.018609
341.89	1565600	992.39	0.0010077	296950	298530	1316.7	969.57	1635.7	333.46	5.291E-07	0.00010975	0.060164	0.0034826	88.52	0.011297	406250	423930	1683.5	956.87	1313.3	123.02	0.000019992	0.000015072	0.01867
342.23	1577700	990.74	0.0010093	297480	299070	1318.3	970.09	1639.3	331.77	5.3885E-07	0.00010926	0.060061	0.0034453	89.331	0.011194	406400	424060	1683.5	958.09	1318.4	122.83	0.000019985	0.000015097	0.018732
342.57	1589900	989.08	0.001011	298010	299620	1319.8	970.61	1642.9	330.06	5.4875E-07	0.00010877	0.059957	0.0034081	90.149	0.011093	406550	424190	1683.4	959.31	1323.7	122.64	0.000019978	0.000015122	0.018795
342.91	1602200	987.41	0.0010128	298550	300170	1321.4	971.14	1646.6	328.36	5.5881E-07	0.00010827	0.059854	0.003371	90.975	0.010992	406700	424310	1683.4	960.54	1329	122.45	0.000019971	0.000015147	0.018858
343.25	1614600	985.73	0.0010145	299080	300720	1322.9	971.67	1650.4	326.65	5.6903E-07	0.00010778	0.059751	0.003334	91.809	0.010892	406850	424430	1683.4	961.78	1334.5	122.26	0.000019965	0.000015172	0.018923
343.59	1627100	984.04	0.0010162	299610	301270	1324.5	972.21	1654.2	324.94	5.7941E-07	0.00010729	0.059648	0.003297	92.652	0.010793	407000	424560	1683.3	963.03	1340	122.07	0.000019958	0.000015198	0.018988
343.93	1639600	982.35	0.001018	300150	301820	1326.1	972.75	1658	323.22	5.8996E-07	0.0001068	0.059545	0.0032602	93.502	0.010695	407140	424680	1683.3	964.28	1345.6	121.87	0.000019952	0.000015223	0.019053
344.27	1652200	980.64	0.0010197	300690	302370	1327.6	973.29	1661.9	321.5	6.0068E-07	0.00010631	0.059443	0.0032234	94.361	0.010598	407290	424800	1683.3	965.54	1351.3	121.67	0.000019946	0.000015249	0.01912
344.61	1664800	978.93	0.0010215	301220	302920	1329.2	973.84	1665.9	319.78	6.1158E-07	0.00010583	0.05934	0.0031868	95.229	0.010501	407430	424920	1683.2	966.81	1357.1	121.48	0.000019941	0.000015274	0.019187
344.95	1677600	977.21	0.0010233	301760	303480	1330.8	974.4	1669.9	318.06	6.2266E-07	0.00010534	0.059237	0.0031502	96.105	0.010405	407580	425030	1683.2	968.09	1363.1	121.28	0.000019935	0.0000153	0.019255
345.29	1690400	975.48	0.0010251	302300	304030	1332.3	974.96	1674	316.33	6.3392E-07	0.00010485	0.059135	0.0031137	96.99	0.01031	407720	425150	1683.1	969.38	1369.1	121.07	0.00001993	0.000015326	0.019324
345.63	1703200	973.74	0.001027	302840	304590	1333.9	975.52	1678.2	314.59	6.4537E-07	0.00010437	0.059032	0.0030773	97.883	0.010216	407860	425260	1683.1	970.67	1375.2	120.87	0.000019925	0.000015352	0.019393
345.97	1716200	971.99	0.0010288	303380	305150	1335.5	976.09	1682.4	312.86	6.5701E-07	0.00010389	0.05893	0.003041	98.786	0.010123	408000	425380	1683	971.97	1381.4	120.67	0.00001992	0.000015378	0.019464
346.31	1729200	970.23	0.0010307	303920	305700	1337.1	976.67	1686.7	311.12	6.6885E-07	0.0001034	0.058828	0.0030048	99.698	0.01003	408140	425490	1683	973.28	1387.7	120.46	0.000019916	0.000015404	0.019535
346.65	1742300	968.47	0.0010326	304460	306260	1338.6	977.25	1691.1	309.37	6.8089E-07	0.00010292	0.058726	0.0029687	100.62	0.0099385	408280	425600	1682.9	974.6	1394.2	120.25	0.000019912	0.000015431	0.019608
346.99	1755500	966.69	0.0010345	305010	306820	1340.2	977.84	1695.5	307.63	6.9314E-07	0.00010244	0.058623	0.0029327	101.55	0.0098474	408420	425710	1682.8	975.93	1400.8	120.04	0.000019908	0.000015457	0.019681
347.33	1768800	964.91	0.0010364	305550	307380	1341.8	978.43	1700	305.87	7.0561E-07	0.00010196	0.058521	0.0028968	102.49	0.0097571	408560	425810	1682.8	977.26	1407.4	119.83	0.000019904	0.000015484	0.019755
347.67	1782100	963.11	0.0010383	306100	307950	1343.4	979.03	1704.6	304.12	7.1829E-07	0.00010148	0.058419	0.002861	103.44	0.0096675	408690	425920	1682.7	978.61	1414.2	119.62	0.0000199	0.00001551	0.01983
348.01	1795500	961.3	0.0010403	306640	308510	1345	979.63	1709.3	302.36	7.3119E-07	0.000101	0.058318	0.0028253	104.4	0.0095786	408820	426020	1682.6	979.96	1421.2	119.4	0.000019897	0.000015537	0.019906
348.35	1809000	959.49	0.0010422	307190	309080	1346.5	980.24	1714.1	300.6	7.4433E-07	0.00010052	0.058216	0.0027897	105.37	0.0094905	408960	426120	1682.5	981.32	1428.3	119.19	0.000019894	0.000015564	0.019984
348.69	1822500	957.66	0.0010442	307740	309640	1348.1	980.86	1718.9	298.83	7.577E-07	0.00010004	0.058114	0.0027542	106.35	0.0094031	409090	426230	1682.5	982.69	1435.5	118.97	0.000019891	0.000015591	0.020062
349.03	1836200	955.82	0.0010462	308290	310210	1349.7	981.49	1723.8	297.06	7.7132E-07	0.000099566	0.058012	0.0027188	107.34	0.0093163	409220	426320	1682.4	984.07	1442.8	118.75	0.000019888	0.000015619	0.020141
349.37	1849900	953.98	0.0010482	308840	310780	1351.3	982.12	1728.9	295.29	7.8518E-07	0.000099089	0.057911	0.0026834	108.34	0.0092303	409350	426420	1682.3	985.46	1450.3	118.53	0.000019886	0.000015646	0.020221
349.71	1863700	952.12	0.0010503	309390	311350	1352.9	982.75	1734	293.51	7.993E-07	0.000098613	0.057809	0.0026482	109.35	0.0091449	409470	426520	1682.2	986.85	1457.9	118.31	0.000019883	0.000015674	0.020303
350.05	1877600	950.25	0.0010524	309940	311920	1354.5	983.4	1739.2	291.73	8.1368E-07	0.000098138	0.057708	0.0026131	110.37	0.0090602	409600	426610	1682.1	988.26	1465.7	118.08	0.000019881	0.000015701	0.020385
350.39	1891500	948.37	0.0010544	310500	312490	1356.1	984.05	1744.5	289.94	8.2833E-07	0.000097663	0.057607	0.0025781	111.41	0.0089762	409720	426700	1682	989.67	1473.7	117.86	0.000019879	0.000015729	0.020469
350.73	1905600	946.48	0.0010566	311050	313060	1357.7	984.7	1749.9	288.15	8.4326E-07	0.000097188	0.057506	0.0025432	112.45	0.0088928	409850	426790	1681.9	991.09	1481.8	117.63	0.000019878	0.000015757	0.020554
351.07	1919700	944.57	0.0010587	311610	313640	1359.3	985.37	1755.4	286.35	8.5847E-07	0.000096714	0.057404	0.0025084	113.51	0.0088101	409970	426880	1681.8	992.53	1490	117.4	0.000019876	0.000015786	0.02064
351.41	1933800	942.66	0.0010608	312160	314220	1360.9	986.04	1761	284.56	8.7398E-07	0.00009624	0.057303	0.0024737	114.57	0.008728	410090	426970	1681.7	993.97	1498.5	117.17	0.000019875	0.000015814	0.020727
351.75	1948100	940.73	0.001063	312720	314790	1362.5	986.72	1766.7	282.75	8.8978E-07	0.000095766	0.057203	0.0024391	115.65	0.0086466	410210	427050	1681.6	995.42	1507.1	116.94	0.000019874	0.000015843	0.020816
352.09	1962500	938.79	0.0010652	313280	315370	1364.1	987.41	1772.6	280.95	9.059E-07	0.000095293	0.057102	0.0024046	116.74	0.0085657	410330	427140	1681.5	996.88	1515.9	116.7	0.000019874	0.000015871	0.020906
352.43	1976900	936.84	0.0010674	313840	315950	1365.7	988.11	1778.5	279.13	9.2233E-07	0.00009482	0.057001	0.0023703	117.85	0.0084855	410440	427220	1681.4	998.35	1524.9	116.46	0.000019873	0.0000159	0.020997
352.77	1991400	934.87	0.0010697	314400	316530	1367.3	988.81	1784.6	277.32	9.391E-07	0.000094347	0.0569	0.002336	118.96	0.0084059	410560	427300	1681.2	999.84	1534.1	116.23	0.000019873	0.000015929	0.02109
353.11	2006000	932.89	0.0010719	314970	317120	1368.9	989.52	1790.8	275.5	9.562E-07	0.000093875	0.0568	0.0023019	120.09	0.0083269	410670	427370	1681.1	1001.3	1543.5	115.99	0.000019872	0.000015959	0.021184
353.45	2020700	930.9	0.0010742	315530	317700	1370.5	990.24	1797.2	273.67	9.7364E-07	0.000093402	0.056699	0.0022678	121.23	0.0082485	410780	427450	1681	1002.8	1553.1	115.74	0.000019873	0.000015988	0.02128
353.79	2035400	928.9	0.0010765	316100	318290	1372.1	990.98	1803.6	271.84	9.9145E-07	0.00009293	0.056599	0.0022339	122.39	0.0081707	410890	427520	1680.8	1004.3	1562.9	115.5	0.000019873	0.000016018	0.021377
354.13	2050300	926.88	0.0010789	316660	318880	1373.7	991.71	1810.3	270.01	1.0096E-06	0.000092458	0.056499	0.0022001	123.56	0.0080934	411000	427590	1680.7	1005.9	1573	115.25	0.000019873	0.000016048	0.021476
354.47	2065200	924.85	0.0010813	317230	319460	1375.3	992.46	1817	268.17	1.0282E-06	0.000091986	0.056399	0.0021664	124.74	0.0080167	411100	427660	1680.6	1007.4	1583.3	115.01	0.000019874	0.000016079	0.021576
354.81	2080200	922.8	0.0010837	317800	320050	1376.9	993.22	1823.9	266.33	1.0471E-06	0.000091514	0.056299	0.0021328	125.93	0.0079406	411210	427730	1680.4	1008.9	1593.8	114.76	0.000019875	0.000016109	0.021678
355.15	2095300	920.74	0.0010861	318370	320650	1378.6	993.99	1831	264.48	1.0665E-06	0.000091042	0.056199	0.0020993	127.14	0.0078651	411310	427790	1680.3	1010.5	1604.6	114.51	0.000019876	0.00001614	0.021781
355.49	2110500	918.67	0.0010885	318940	321240	1380.2	994.77	1838.2	262.62	1.0862E-06	0.000090569	0.056099	0.002066	128.37	0.00779	411410	427850	1680.1	1012.1	1615.6	114.25	0.000019877	0.000016171	0.021887
355.83	2125700	916.58	0.001091	319520	321840	1381.8	995.55	1845.6	260.77	1.1064E-06	0.000090097	0.056	0.0020327	129.61	0.0077155	411510	427910	1679.9	1013.6	1626.9	114	0.000019878	0.000016202	0.021994
356.17	2141100	914.47	0.0010935	320090	322430	1383.4	996.35	1853.2	258.9	1.1271E-06	0.000089625	0.0559	0.0019996	130.86	0.0076416	411610	427970	1679.8	1015.2	1638.5	113.74	0.00001988	0.000016234	0.022103
356.51	2156500	912.35	0.0010961	320670	323030	1385.1	997.16	1861	257.04	1.1482E-06	0.000089152	0.055801	0.0019666	132.13	0.0075682	411700	428020	1679.6	1016.8	1650.4	113.48	0.000019881	0.000016265	0.022213
356.85	2172000	910.21	0.0010986	321250	323630	1386.7	997.98	1868.9	255.16	1.1697E-06	0.000088679	0.055702	0.0019337	133.42	0.0074952	411800	428080	1679.4	1018.5	1662.6	113.22	0.000019883	0.000016298	0.022326
357.19	2187600	908.06	0.0011012	321830	324240	1388.4	998.81	1877.1	253.28	1.1918E-06	0.000088206	0.055603	0.001901	134.72	0.0074228	411890	428130	1679.2	1020.1	1675.1	112.96	0.000019885	0.00001633	0.022441
357.53	2203300	905.89	0.0011039	322410	324840	1390	999.66	1885.4	251.4	1.2144E-06	0.000087732	0.055504	0.0018683	136.04	0.0073509	411980	428170	1679	1021.7	1687.9	112.69	0.000019887	0.000016363	0.022558
357.87	2219100	903.7	0.0011066	322990	325450	1391.6	1000.5	1894	249.51	1.2375E-06	0.000087258	0.055405	0.0018358	137.37	0.0072795	412060	428220	1678.8	1023.4	1701.1	112.42	0.00001989	0.000016396	0.022677
358.21	2234900	901.5	0.0011093	323570	326050	1393.3	1001.4	1902.7	247.62	1.2611E-06	0.000086784	0.055307	0.0018034	138.72	0.0072086	412150	428260	1678.6	1025	1714.6	112.15	0.000019892	0.000016429	0.022798
358.55	2250900	899.27	0.001112	324160	326660	1394.9	1002.3	1911.7	245.72	1.2853E-06	0.000086308	0.055208	0.0017712	140.09	0.0071381	412230	428300	1678.4	1026.7	1728.5	111.88	0.000019894	0.000016463	0.022921
358.89	2266900	897.03	0.0011148	324750	327270	1396.6	1003.2	1921	243.81	1.3101E-06	0.000085833	0.05511	0.0017391	141.48	0.0070681	412310	428330	1678.2	1028.4	1742.8	111.61	0.000019897	0.000016497	0.023047
359.23	2283000	894.77	0.0011176	325340	327890	1398.3	1004.1	1930.5	241.9	1.3354E-06	0.000085357	0.055012	0.0017071	142.89	0.0069986	412390	428370	1678	1030.1	1757.6	111.33	0.0000199	0.000016531	0.023175
359.57	2299200	892.5	0.0011205	325930	328500	1399.9	1005	1940.2	239.99	1.3614E-06	0.00008488	0.054915	0.0016752	144.31	0.0069295	412470	428400	1677.7	1031.9	1772.7	111.05	0.000019903	0.000016566	0.023305
359.91	2315600	890.2	0.0011233	326520	329120	1401.6	1005.9	1950.3	238.06	1.3881E-06	0.000084402	0.054817	0.0016435	145.75	0.0068609	412540	428430	1677.5	1033.6	1788.3	110.77	0.000019906	0.000016601	0.023438
360.25	2331900	887.88	0.0011263	327120	329740	1403.3	1006.9	1960.6	236.14	1.4154E-06	0.000083924	0.05472	0.0016118	147.22	0.0067927	412610	428450	1677.3	1035.3	1804.3	110.49	0.000019909	0.000016637	0.023574
360.59	2348400	885.54	0.0011293	327710	330360	1404.9	1007.8	1971.2	234.2	1.4434E-06	0.000083444	0.054623	0.0015804	148.7	0.0067249	412680	428470	1677	1037.1	1820.8	110.21	0.000019912	0.000016673	0.023712
360.93	2365000	883.18	0.0011323	328310	330990	1406.6	1008.8	1982.1	232.26	1.4721E-06	0.000082964	0.054526	0.0015491	150.2	0.0066576	412740	428490	1676.8	1038.9	1837.8	109.92	0.000019915	0.000016709	0.023854
361.27	2381700	880.8	0.0011353	328910	331610	1408.3	1009.8	1993.4	230.32	1.5016E-06	0.000082483	0.054429	0.0015179	151.73	0.0065907	412810	428500	1676.5	1040.7	1855.4	109.63	0.000019918	0.000016746	0.023998
361.61	2398400	878.4	0.0011384	329510	332240	1410	1010.8	2005	228.36	1.5318E-06	0.000082001	0.054333	0.0014868	153.28	0.0065242	412870	428520	1676.2	1042.5	1873.5	109.34	0.000019921	0.000016784	0.024145
361.95	2415300	875.97	0.0011416	330120	332870	1411.7	1011.8	2016.9	226.41	1.5628E-06	0.000081517	0.054237	0.0014559	154.85	0.0064581	412930	428520	1675.9	1044.4	1892.2	109.05	0.000019925	0.000016822	0.024295
362.29	2432200	873.52	0.0011448	330720	333510	1413.4	1012.9	2029.2	224.44	1.5947E-06	0.000081032	0.054142	0.0014251	156.44	0.0063924	412980	428530	1675.6	1046.2	1911.6	108.75	0.000019928	0.00001686	0.024449
362.63	2449300	871.05	0.001148	331330	334140	1415.1	1013.9	2041.9	222.47	1.6275E-06	0.000080547	0.054046	0.0013945	158.05	0.006327	413030	428530	1675.4	1048.1	1931.6	108.45	0.000019931	0.000016899	0.024606
362.97	2466400	868.55	0.0011513	331940	334780	1416.8	1015	2055.1	220.49	1.6612E-06	0.000080059	0.053951	0.001364	159.69	0.0062621	413080	428530	1675	1050	1952.2	108.15	0.000019934	0.000016939	0.024766
363.31	2483600	866.03	0.0011547	332560	335420	1418.5	1016.1	2068.6	218.5	1.6958E-06	0.00007957	0.053857	0.0013337	161.36	0.0061975	413130	428520	1674.7	1051.9	1973.6	107.85	0.000019937	0.000016979	0.02493
363.65	2501000	863.48	0.0011581	333170	336070	1420.2	1017.3	2082.7	216.51	1.7314E-06	0.00007908	0.053763	0.0013035	163.05	0.0061333	413170	428510	1674.4	1053.9	1995.7	107.55	0.00001994	0.00001702	0.025098
363.99	2518400	860.9	0.0011616	333790	336720	1421.9	1018.4	2097.2	214.51	0.000001768	0.000078588	0.053669	0.0012735	164.76	0.0060694	413210	428490	1674.1	1055.8	2018.7	107.24	0.000019943	0.000017061	0.02527
364.33	2535900	858.3	0.0011651	334410	337370	1423.7	1019.6	2112.2	212.5	1.8057E-06	0.000078094	0.053576	0.0012437	166.5	0.0060058	413240	428470	1673.7	1057.8	2042.5	106.93	0.000019946	0.000017103	0.025446
364.67	2553500	855.67	0.0011687	335030	338020	1425.4	1020.7	2127.8	210.49	1.8445E-06	0.000077599	0.053484	0.0012139	168.28	0.0059426	413280	428450	1673.4	1059.8	2067.2	106.62	0.000019949	0.000017146	0.025626
365.01	2571200	853.01	0.0011723	335660	338670	1427.1	1022	2143.9	208.47	1.8845E-06	0.000077101	0.053392	0.0011844	170.07	0.0058798	413310	428420	1673	1061.9	2092.8	106.3	0.000019951	0.00001719	0.02581
365.35	2589000	850.31	0.001176	336290	339330	1428.9	1023.2	2160.7	206.44	1.9257E-06	0.000076602	0.0533	0.001155	171.9	0.0058172	413330	428390	1672.6	1063.9	2119.4	105.99	0.000019954	0.000017234	0.025999
365.69	2606900	847.59	0.0011798	336920	339990	1430.6	1024.4	2178.1	204.4	1.9682E-06	0.0000761	0.053209	0.0011258	173.76	0.005755	413350	428350	1672.3	1066	2147.1	105.67	0.000019956	0.000017279	0.026193
366.03	2625000	844.84	0.0011837	337550	340660	1432.4	1025.7	2196.1	202.35	0.000002012	0.000075596	0.053119	0.0010967	175.65	0.005693	413370	428310	1671.9	1068.1	2176	105.34	0.000019957	0.000017325	0.026391
366.37	2643100	842.05	0.0011876	338190	341330	1434.2	1027	2214.9	200.3	2.0572E-06	0.00007509	0.05303	0.0010678	177.58	0.0056314	413380	428270	1671.5	1070.3	2206	105.02	0.000019959	0.000017372	0.026595
366.71	2661300	839.23	0.0011916	338830	342000	1435.9	1028.4	2234.5	198.23	2.1039E-06	0.000074581	0.052942	0.0010391	179.53	0.00557	413390	428210	1671	1072.4	2237.3	104.69	0.00001996	0.000017419	0.026804
367.05	2679600	836.37	0.0011956	339470	342680	1437.7	1029.8	2254.9	196.16	2.1521E-06	0.00007407	0.052854	0.0010105	181.53	0.0055089	413400	428160	1670.6	1074.6	2270	104.36	0.000019961	0.000017468	0.027019
367.39	2698000	833.48	0.0011998	340120	343360	1439.5	1031.2	2276.1	194.08	2.2019E-06	0.000073556	0.052767	0.00098217	183.55	0.005448	413400	428090	1670.2	1076.9	2304.2	104.03	0.000019961	0.000017518	0.02724
367.73	2716500	830.55	0.001204	340770	344040	1441.3	1032.6	2298.3	191.99	2.2535E-06	0.000073039	0.052682	0.00095397	185.62	0.0053874	413390	428030	1669.7	1079.1	2339.9	103.69	0.000019961	0.000017568	0.027468
368.07	2735100	827.58	0.0012083	341420	344730	1443.1	1034	2321.5	189.89	2.3068E-06	0.000072519	0.052597	0.00092596	187.72	0.005327	413380	427950	1669.2	1081.4	2377.3	103.35	0.00001996	0.00001762	0.027701
368.41	2753800	824.57	0.0012128	342080	345420	1444.9	1035.5	2345.8	187.78	0.000002362	0.000071995	0.052514	0.00089813	189.87	0.0052669	413370	427870	1668.7	1083.8	2416.5	103.01	0.000019958	0.000017673	0.027942
368.75	2772600	821.52	0.0012173	342740	346110	1446.8	1037.1	2371.2	185.66	2.4191E-06	0.000071468	0.052432	0.00087049	192.05	0.005207	413350	427780	1668.2	1086.2	2457.6	102.67	0.000019956	0.000017727	0.02819
369.09	2791600	818.42	0.0012219	343400	346810	1448.6	1038.7	2397.8	183.53	2.4784E-06	0.000070938	0.052352	0.00084303	194.28	0.0051472	413320	427690	1667.7	1088.6	2500.8	102.32	0.000019954	0.000017783	0.028445
369.43	2810600	815.28	0.0012266	344070	347520	1450.4	1040.3	2425.8	181.39	2.5399E-06	0.000070404	0.052273	0.00081578	196.55	0.0050877	413290	427590	1667.2	1091	2546.2	101.97	0.00001995	0.00001784	0.028708
369.77	2829700	812.09	0.0012314	344740	348230	1452.3	1041.9	2455.2	179.24	2.6037E-06	0.000069866	0.052196	0.00078872	198.87	0.0050283	413250	427480	1666.6	1093.6	2594	101.62	0.000019946	0.000017898	0.02898
370.11	2849000	808.85	0.0012363	345420	348940	1454.2	1043.6	2486.2	177.07	2.6699E-06	0.000069323	0.052121	0.00076186	201.24	0.0049691	413210	427370	1666.1	1096.1	2644.5	101.26	0.00001994	0.000017958	0.02926
370.45	2868300	805.55	0.0012414	346100	349660	1456	1045.4	2518.8	174.9	2.7388E-06	0.000068776	0.052048	0.00073521	203.66	0.0049101	413160	427250	1665.5	1098.7	2697.8	100.9	0.000019934	0.00001802	0.02955
370.79	2887800	802.21	0.0012466	346790	350390	1457.9	1047.2	2553.3	172.71	2.8104E-06	0.000068225	0.051978	0.00070878	206.14	0.0048512	413110	427110	1664.9	1101.4	2754.1	100.54	0.000019926	0.000018083	0.02985
371.13	2907400	798.8	0.0012519	347480	351120	1459.8	1049	2589.8	170.51	2.8849E-06	0.000067668	0.05191	0.00068255	208.67	0.0047924	413040	426980	1664.2	1104.1	2813.9	100.17	0.000019918	0.000018148	0.030161
371.47	2927100	795.34	0.0012573	348180	351860	1461.8	1050.9	2628.4	168.3	2.9626E-06	0.000067106	0.051845	0.00065654	211.25	0.0047336	412970	426830	1663.6	1106.9	2877.3	99.806	0.000019908	0.000018216	0.030482
371.81	2946900	791.82	0.0012629	348880	352600	1463.7	1052.9	2669.4	166.07	3.0435E-06	0.000066539	0.051783	0.00063076	213.9	0.004675	412890	426670	1662.9	1109.7	2944.7	99.433	0.000019896	0.000018285	0.030816
372.15	2966800	788.22	0.0012687	349580	353350	1465.6	1055	2713.1	163.83	3.1281E-06	0.000065966	0.051725	0.00060521	216.62	0.0046164	412810	426500	1662.2	1112.6	3016.6	99.058	0.000019883	0.000018356	0.031163
372.49	2986800	784.57	0.0012746	350300	354100	1467.6	1057	2759.6	161.57	3.2163E-06	0.000065387	0.05167	0.00057989	219.4	0.0045579	412710	426330	1661.5	1115.6	3093.3	98.679	0.000019868	0.00001843	0.031523
372.83	3006900	780.83	0.0012807	351020	354870	1469.6	1059.2	2809.3	159.3	3.3086E-06	0.000064801	0.05162	0.00055482	222.25	0.0044994	412610	426140	1660.7	1118.6	3175.4	98.296	0.000019851	0.000018507	0.031897
373.17	3027200	777.02	0.001287	351740	355640	1471.6	1061.5	2862.5	157.02	3.4053E-06	0.000064207	0.051575	0.00052998	225.18	0.0044409	412500	425940	1660	1121.7	3263.4	97.91	0.000019832	0.000018586	0.032288
373.51	3047500	773.13	0.0012934	352480	356420	1473.6	1063.8	2919.7	154.71	3.5065E-06	0.000063607	0.051535	0.00050541	228.19	0.0043823	412370	425730	1659.2	1125	3358.2	97.52	0.000019811	0.000018668	0.032695
373.85	3068000	769.16	0.0013001	353220	357210	1475.6	1066.2	2981.2	152.39	3.6127E-06	0.000062998	0.051502	0.00048109	231.28	0.0043237	412240	425510	1658.3	1128.3	3460.3	97.125	0.000019787	0.000018753	0.033121
373.85	3068000	769.16	0.0013001	353220	357210	1475.6	1066.2	2981.2	152.39	3.6127E-06	0.000062998	0.051502	0.00048109	231.28	0.0043237	412240	425510	1658.3	1128.3	3460.3	97.125	0.000019787	0.000018753	0.033121
374.19	3088600	765.09	0.001307	353970	358000	1477.7	1068.7	3047.7	150.06	3.7243E-06	0.000062381	0.051475	0.00045703	234.47	0.004265	412100	425270	1657.4	1131.7	3570.8	96.727	0.000019761	0.000018842	0.033566
