Temperature (K)	Pressure (Pa)	"Density (l, kg/m3)"	"Volume (l, m3/kg)"	"Internal Energy (l, J/kg)"	"Enthalpy (l, J/kg)"	"Entropy (l, J/kg*K)"	"Cv (l, J/kg*K)"	"Cp (l, J/kg*K)"	"Sound Spd. (l, m/s)"	"Joule-Thomson (l, K/Pa)"	"Viscosity (l, Pa*s)"	"Therm. Cond. (l, W/m*K)"	"Surf. Tension (l, N/m)"	"Density (v, kg/m3)"	"Volume (v, m3/kg)"	"Internal Energy (v, J/kg)"	"Enthalpy (v, J/kg)"	"Entropy (v, J/kg*K)"	"Cv (v, J/kg*K)"	"Cp (v, J/kg*K)"	"Sound Spd. (v, m/s)"	"Joule-Thomson (v, K/Pa)"	"Viscosity (v, Pa*s)"	"Therm. Cond. (v, W/m*K)"
170	414.63	1164.5	0.00085873	36972	36972	254.83	1028.4	1515.1	1293.7	-4.14E-07	0.0012486	0.16554	0.029099	0.019391	51.571	408920	430300	2568.5	606.08	732.59	160.7	0.00023322	5.71E-06	0.0016044
170.33	429.82	1163.9	0.00085919	37477	37477	257.8	1028.6	1515.4	1291.6	-4.14E-07	0.0012373	0.16531	0.029045	0.020062	49.844	409120	430540	2565.4	606.82	733.35	160.84	0.00023146	5.72E-06	0.0016368
170.67	445.5	1163.3	0.00085964	37982	37983	260.76	1028.7	1515.7	1289.6	-4.13E-07	0.0012261	0.16509	0.02899	0.020754	48.183	409320	430780	2562.3	607.55	734.11	160.98	0.00022972	5.73E-06	0.0016693
171	461.67	1162.7	0.0008601	38487	38488	263.72	1028.9	1516	1287.6	-4.13E-07	0.0012151	0.16486	0.028935	0.021466	46.585	409520	431030	2559.3	608.29	734.86	161.12	0.000228	5.74E-06	0.0017017
171.33	478.35	1162	0.00086055	38993	38993	266.67	1029.1	1516.3	1285.6	-4.13E-07	0.0012043	0.16464	0.028881	0.022199	45.047	409720	431270	2556.2	609.03	735.62	161.26	0.00022629	5.75E-06	0.0017342
171.67	495.56	1161.4	0.00086101	39498	39499	269.62	1029.2	1516.6	1283.6	-4.12E-07	0.0011936	0.16442	0.028826	0.022953	43.566	409920	431510	2553.2	609.77	736.38	161.4	0.0002246	5.76E-06	0.0017667
172	513.3	1160.8	0.00086147	40004	40004	272.56	1029.3	1516.9	1281.7	-4.12E-07	0.001183	0.16419	0.028771	0.02373	42.141	410120	431750	2550.2	610.52	737.14	161.53	0.00022292	5.77E-06	0.0017991
172.33	531.6	1160.2	0.00086193	40510	40510	275.5	1029.5	1517.2	1279.7	-4.12E-07	0.0011726	0.16397	0.028717	0.024529	40.769	410320	432000	2547.2	611.26	737.91	161.67	0.00022126	5.78E-06	0.0018316
172.67	550.46	1159.6	0.00086239	41015	41016	278.43	1029.6	1517.4	1277.7	-4.12E-07	0.0011624	0.16375	0.028662	0.02535	39.447	410530	432240	2544.2	612	738.67	161.81	0.00021961	5.79E-06	0.0018641
173	569.89	1159	0.00086285	41521	41522	281.36	1029.7	1517.7	1275.8	-4.11E-07	0.0011523	0.16353	0.028607	0.026196	38.174	410730	432480	2541.2	612.75	739.44	161.95	0.00021798	5.80E-06	0.0018965
173.33	589.93	1158.3	0.00086331	42027	42028	284.28	1029.8	1518	1273.8	-4.11E-07	0.0011423	0.16331	0.028553	0.027065	36.948	410930	432730	2538.3	613.49	740.2	162.08	0.00021637	5.82E-06	0.001929
173.67	610.57	1157.7	0.00086377	42533	42534	287.19	1029.9	1518.2	1271.9	-4.11E-07	0.0011325	0.16308	0.028498	0.027959	35.766	411130	432970	2535.4	614.24	740.97	162.22	0.00021477	5.83E-06	0.0019615
174	631.84	1157.1	0.00086423	43039	43040	290.11	1030	1518.4	1269.9	-4.11E-07	0.0011227	0.16286	0.028444	0.028879	34.628	411330	433210	2532.5	614.98	741.74	162.36	0.00021318	5.84E-06	0.0019939
174.33	653.75	1156.5	0.00086469	43545	43546	293.01	1030	1518.7	1268	-4.10E-07	0.0011132	0.16264	0.028389	0.029824	33.53	411540	433460	2529.6	615.73	742.51	162.49	0.00021161	5.85E-06	0.0020264
174.67	676.31	1155.9	0.00086515	44052	44052	295.91	1030.1	1518.9	1266.1	-4.10E-07	0.0011037	0.16242	0.028335	0.030795	32.473	411740	433700	2526.7	616.48	743.28	162.63	0.00021005	5.86E-06	0.0020589
175	699.55	1155.2	0.00086561	44558	44559	298.81	1030.2	1519.1	1264.2	-4.10E-07	0.0010944	0.1622	0.02828	0.031794	31.453	411940	433950	2523.9	617.23	744.05	162.77	0.00020851	5.87E-06	0.0020913
175.33	723.48	1154.6	0.00086608	45064	45065	301.7	1030.2	1519.3	1262.3	-4.09E-07	0.0010852	0.16198	0.028226	0.03282	30.47	412150	434190	2521	617.98	744.83	162.9	0.00020698	5.88E-06	0.0021238
175.67	748.12	1154	0.00086654	45571	45572	304.59	1030.3	1519.5	1260.4	-4.09E-07	0.0010761	0.16176	0.028172	0.033874	29.521	412350	434440	2518.2	618.73	745.6	163.04	0.00020547	5.89E-06	0.0021563
176	773.48	1153.4	0.00086701	46077	46078	307.47	1030.3	1519.7	1258.5	-4.09E-07	0.0010671	0.16154	0.028117	0.034957	28.607	412550	434680	2515.4	619.48	746.38	163.17	0.00020397	5.90E-06	0.0021888
176.33	799.58	1152.8	0.00086747	46584	46585	310.34	1030.4	1520	1256.6	-4.09E-07	0.0010583	0.16133	0.028063	0.03607	27.724	412760	434930	2512.7	620.23	747.16	163.31	0.00020248	5.91E-06	0.0022212
176.67	826.45	1152.2	0.00086794	47091	47091	313.21	1030.4	1520.2	1254.7	-4.08E-07	0.0010495	0.16111	0.028008	0.037212	26.873	412960	435170	2509.9	620.99	747.94	163.44	0.00020101	5.92E-06	0.0022537
177	854.09	1151.5	0.00086841	47598	47598	316.08	1030.4	1520.4	1252.8	-4.08E-07	0.0010409	0.16089	0.027954	0.038386	26.051	413170	435420	2507.1	621.74	748.72	163.58	0.00019955	5.94E-06	0.0022862
177.33	882.52	1150.9	0.00086887	48104	48105	318.94	1030.5	1520.5	1250.9	-4.08E-07	0.0010324	0.16067	0.0279	0.039591	25.258	413370	435660	2504.4	622.5	749.5	163.71	0.0001981	5.95E-06	0.0023187
177.67	911.78	1150.3	0.00086934	48611	48612	321.79	1030.5	1520.7	1249.1	-4.08E-07	0.001024	0.16045	0.027846	0.040828	24.493	413570	435910	2501.7	623.25	750.29	163.85	0.00019667	5.96E-06	0.0023511
178	941.87	1149.7	0.00086981	49118	49119	324.65	1030.5	1520.9	1247.2	-4.07E-07	0.0010157	0.16024	0.027791	0.042098	23.754	413780	436150	2499	624.01	751.07	163.98	0.00019525	5.97E-06	0.0023836
178.33	972.81	1149.1	0.00087028	49625	49626	327.49	1030.5	1521.1	1245.3	-4.07E-07	0.0010075	0.16002	0.027737	0.043401	23.041	413980	436400	2496.3	624.77	751.86	164.11	0.00019384	5.98E-06	0.0024161
178.67	1004.6	1148.4	0.00087075	50132	50133	330.33	1030.5	1521.3	1243.5	-4.07E-07	0.00099942	0.1598	0.027683	0.044738	22.352	414190	436640	2493.6	625.53	752.65	164.25	0.00019245	5.99E-06	0.0024486
179	1037.3	1147.8	0.00087122	50639	50640	333.17	1030.5	1521.5	1241.6	-4.06E-07	0.00099144	0.15959	0.027629	0.046111	21.687	414390	436890	2491	626.29	753.44	164.38	0.00019107	6.00E-06	0.0024811
179.33	1071	1147.2	0.00087169	51146	51147	336	1030.5	1521.7	1239.8	-4.06E-07	0.00098355	0.15937	0.027574	0.047519	21.044	414600	437140	2488.4	627.05	754.23	164.51	0.0001897	6.01E-06	0.0025135
179.67	1105.5	1146.6	0.00087216	51654	51655	338.82	1030.5	1521.8	1237.9	-4.06E-07	0.00097577	0.15916	0.02752	0.048964	20.423	414810	437380	2485.7	627.81	755.02	164.65	0.00018834	6.02E-06	0.002546
180	1141.1	1146	0.00087263	52161	52162	341.65	1030.5	1522	1236.1	-4.06E-07	0.00096808	0.15894	0.027466	0.050446	19.823	415010	437630	2483.1	628.57	755.82	164.78	0.00018699	6.03E-06	0.0025785
180.33	1177.6	1145.3	0.00087311	52668	52669	344.46	1030.5	1522.2	1234.3	-4.05E-07	0.00096048	0.15873	0.027412	0.051966	19.244	415220	437880	2480.6	629.34	756.61	164.91	0.00018566	6.05E-06	0.002611
180.67	1215.1	1144.7	0.00087358	53176	53177	347.27	1030.5	1522.4	1232.4	-4.05E-07	0.00095298	0.15851	0.027358	0.053524	18.683	415420	438120	2478	630.1	757.41	165.04	0.00018434	6.06E-06	0.0026435
181	1253.6	1144.1	0.00087405	53683	53684	350.08	1030.5	1522.6	1230.6	-4.05E-07	0.00094557	0.1583	0.027304	0.055122	18.142	415630	438370	2475.4	630.87	758.21	165.17	0.00018303	6.07E-06	0.002676
181.33	1293.2	1143.5	0.00087453	54191	54192	352.88	1030.5	1522.7	1228.8	-4.05E-07	0.00093825	0.15808	0.027249	0.05676	17.618	415840	438620	2472.9	631.63	759.01	165.31	0.00018173	6.08E-06	0.0027085
181.67	1333.8	1142.9	0.000875	54698	54700	355.68	1030.5	1522.9	1227	-4.04E-07	0.00093102	0.15787	0.027195	0.05844	17.112	416040	438870	2470.4	632.4	759.81	165.44	0.00018044	6.09E-06	0.0027409
182	1375.6	1142.2	0.00087548	55206	55207	358.47	1030.5	1523.1	1225.1	-4.04E-07	0.00092387	0.15766	0.027141	0.060161	16.622	416250	439110	2467.8	633.17	760.62	165.57	0.00017917	6.10E-06	0.0027734
182.33	1418.5	1141.6	0.00087596	55714	55715	361.26	1030.5	1523.3	1223.3	-4.04E-07	0.00091681	0.15744	0.027087	0.061926	16.148	416460	439360	2465.4	633.94	761.42	165.7	0.00017791	6.11E-06	0.0028059
182.67	1462.5	1141	0.00087643	56222	56223	364.04	1030.5	1523.4	1221.5	-4.03E-07	0.00090984	0.15723	0.027033	0.063734	15.69	416660	439610	2462.9	634.71	762.23	165.83	0.00017665	6.12E-06	0.0028384
183	1507.6	1140.4	0.00087691	56729	56731	366.82	1030.5	1523.6	1219.7	-4.03E-07	0.00090295	0.15702	0.026979	0.065586	15.247	416870	439860	2460.4	635.48	763.04	165.96	0.00017541	6.13E-06	0.0028709
183.33	1554	1139.7	0.00087739	57237	57239	369.59	1030.4	1523.8	1217.9	-4.03E-07	0.00089614	0.15681	0.026925	0.067484	14.818	417080	440110	2458	636.26	763.85	166.09	0.00017418	6.14E-06	0.0029034
183.67	1601.6	1139.1	0.00087787	57745	57747	372.36	1030.4	1524	1216.1	-4.03E-07	0.00088941	0.1566	0.026871	0.069428	14.403	417290	440360	2455.5	637.03	764.66	166.22	0.00017296	6.16E-06	0.0029359
184	1650.5	1138.5	0.00087835	58253	58255	375.12	1030.4	1524.1	1214.3	-4.02E-07	0.00088276	0.15639	0.026817	0.071419	14.002	417490	440600	2453.1	637.8	765.48	166.35	0.00017175	6.17E-06	0.0029684
184.33	1700.6	1137.9	0.00087883	58761	58763	377.88	1030.4	1524.3	1212.6	-4.02E-07	0.00087619	0.15617	0.026764	0.073458	13.613	417700	440850	2450.7	638.58	766.3	166.48	0.00017056	6.18E-06	0.0030009
184.67	1752	1137.3	0.00087931	59269	59271	380.63	1030.4	1524.5	1210.8	-4.02E-07	0.0008697	0.15596	0.02671	0.075546	13.237	417910	441100	2448.3	639.36	767.11	166.61	0.00016937	6.19E-06	0.0030334
185	1804.7	1136.6	0.00087979	59778	59779	383.38	1030.4	1524.7	1209	-4.01E-07	0.00086328	0.15575	0.026656	0.077684	12.873	418120	441350	2445.9	640.13	767.93	166.74	0.00016819	6.20E-06	0.0030659
185.33	1858.8	1136	0.00088028	60286	60287	386.13	1030.3	1524.9	1207.2	-4.01E-07	0.00085693	0.15554	0.026602	0.079873	12.52	418330	441600	2443.6	640.91	768.75	166.87	0.00016702	6.21E-06	0.0030984
185.67	1914.3	1135.4	0.00088076	60794	60796	388.87	1030.3	1525.1	1205.4	-4.01E-07	0.00085066	0.15533	0.026548	0.082114	12.178	418540	441850	2441.2	641.69	769.58	167	0.00016587	6.22E-06	0.0031309
186	1971.2	1134.8	0.00088124	61303	61304	391.6	1030.3	1525.2	1203.7	-4.01E-07	0.00084446	0.15512	0.026494	0.084408	11.847	418750	442100	2438.9	642.48	770.4	167.12	0.00016472	6.23E-06	0.0031634
186.33	2029.5	1134.1	0.00088173	61811	61813	394.33	1030.3	1525.4	1201.9	-4.00E-07	0.00083833	0.15492	0.02644	0.086755	11.527	418950	442350	2436.6	643.26	771.23	167.25	0.00016358	6.24E-06	0.0031959
186.67	2089.3	1133.5	0.00088221	62319	62321	397.06	1030.3	1525.6	1200.1	-4.00E-07	0.00083227	0.15471	0.026387	0.089157	11.216	419160	442600	2434.3	644.04	772.06	167.38	0.00016246	6.25E-06	0.0032285
187	2150.6	1132.9	0.0008827	62828	62830	399.78	1030.3	1525.8	1198.4	-4.00E-07	0.00082628	0.1545	0.026333	0.091615	10.915	419370	442850	2432	644.83	772.89	167.51	0.00016134	6.27E-06	0.003261
187.33	2213.5	1132.3	0.00088319	63337	63339	402.5	1030.2	1526	1196.6	-3.99E-07	0.00082035	0.15429	0.026279	0.094129	10.624	419580	443100	2429.7	645.61	773.72	167.64	0.00016023	6.28E-06	0.0032935
187.67	2277.9	1131.6	0.00088367	63845	63847	405.21	1030.2	1526.2	1194.8	-3.99E-07	0.0008145	0.15408	0.026226	0.096702	10.341	419790	443350	2427.4	646.4	774.56	167.76	0.00015913	6.29E-06	0.003326
188	2343.8	1131	0.00088416	64354	64356	407.92	1030.2	1526.4	1193.1	-3.99E-07	0.0008087	0.15387	0.026172	0.099333	10.067	420000	443600	2425.2	647.19	775.39	167.89	0.00015805	6.30E-06	0.0033585
188.33	2411.5	1130.4	0.00088465	64863	64865	410.63	1030.2	1526.6	1191.3	-3.98E-07	0.00080298	0.15367	0.026118	0.10202	9.8016	420210	443850	2422.9	647.98	776.23	168.02	0.00015697	6.31E-06	0.003391
188.67	2480.7	1129.8	0.00088514	65372	65374	413.33	1030.2	1526.8	1189.6	-3.98E-07	0.00079731	0.15346	0.026064	0.10478	9.5441	420420	444100	2420.7	648.77	777.07	168.14	0.0001559	6.32E-06	0.0034236
189	2551.7	1129.1	0.00088563	65881	65883	416.02	1030.2	1527	1187.8	-3.98E-07	0.00079171	0.15325	0.026011	0.10759	9.2945	420630	444350	2418.5	649.56	777.91	168.27	0.00015484	6.33E-06	0.0034561
189.33	2624.4	1128.5	0.00088612	66390	66392	418.71	1030.2	1527.2	1186.1	-3.98E-07	0.00078617	0.15305	0.025957	0.11047	9.0524	420840	444600	2416.3	650.35	778.76	168.39	0.00015379	6.34E-06	0.0034886
189.67	2698.8	1127.9	0.00088661	66899	66901	421.4	1030.2	1527.4	1184.4	-3.97E-07	0.00078069	0.15284	0.025904	0.11341	8.8176	421050	444850	2414.1	651.14	779.6	168.52	0.00015274	6.35E-06	0.0035211
190	2775.1	1127.3	0.0008871	67408	67410	424.08	1030.2	1527.6	1182.6	-3.97E-07	0.00077527	0.15263	0.02585	0.11642	8.5898	421260	445100	2411.9	651.94	780.45	168.64	0.00015171	6.37E-06	0.0035537
190.33	2853.2	1126.6	0.0008876	67917	67920	426.76	1030.2	1527.9	1180.9	-3.97E-07	0.00076991	0.15243	0.025796	0.11949	8.3689	421480	445350	2409.8	652.74	781.3	168.77	0.00015068	6.38E-06	0.0035862
190.67	2933.1	1126	0.00088809	68426	68429	429.43	1030.2	1528.1	1179.1	-3.96E-07	0.00076461	0.15222	0.025743	0.12263	8.1545	421690	445600	2407.6	653.53	782.15	168.89	0.00014967	6.39E-06	0.0036187
191	3014.9	1125.4	0.00088859	68936	68939	432.1	1030.2	1528.3	1177.4	-3.96E-07	0.00075936	0.15202	0.025689	0.12584	7.9465	421900	445860	2405.5	654.33	783.01	169.02	0.00014866	6.40E-06	0.0036513
191.33	3098.7	1124.8	0.00088908	69445	69448	434.77	1030.2	1528.5	1175.7	-3.96E-07	0.00075417	0.15181	0.025636	0.12912	7.7446	422110	446110	2403.4	655.13	783.86	169.14	0.00014766	6.41E-06	0.0036838
191.67	3184.4	1124.1	0.00088958	69955	69958	437.43	1030.2	1528.8	1174	-3.95E-07	0.00074903	0.15161	0.025582	0.13247	7.5487	422320	446360	2401.3	655.93	784.72	169.27	0.00014667	6.42E-06	0.0037163
192	3272.1	1123.5	0.00089007	70464	70467	440.08	1030.2	1529	1172.2	-3.95E-07	0.00074395	0.15141	0.025529	0.1359	7.3585	422530	446610	2399.2	656.73	785.58	169.39	0.00014569	6.43E-06	0.0037489
192.33	3361.9	1122.9	0.00089057	70974	70977	442.73	1030.2	1529.2	1170.5	-3.95E-07	0.00073892	0.1512	0.025476	0.1394	7.1738	422740	446860	2397.1	657.54	786.45	169.51	0.00014472	6.44E-06	0.0037814
192.67	3453.8	1122.2	0.00089107	71484	71487	445.38	1030.2	1529.5	1168.8	-3.94E-07	0.00073395	0.151	0.025422	0.14297	6.9946	422960	447110	2395	658.34	787.31	169.64	0.00014375	6.45E-06	0.003814
193	3547.8	1121.6	0.00089157	71994	71997	448.03	1030.2	1529.7	1167.1	-3.94E-07	0.00072903	0.1508	0.025369	0.14662	6.8205	423170	447370	2392.9	659.15	788.18	169.76	0.0001428	6.46E-06	0.0038465
193.33	3643.9	1121	0.00089207	72504	72507	450.67	1030.2	1529.9	1165.3	-3.94E-07	0.00072416	0.15059	0.025315	0.15034	6.6515	423380	447620	2390.9	659.95	789.05	169.88	0.00014185	6.48E-06	0.003879
193.67	3742.3	1120.4	0.00089257	73014	73017	453.3	1030.2	1530.2	1163.6	-3.93E-07	0.00071934	0.15039	0.025262	0.15415	6.4873	423590	447870	2388.9	660.76	789.92	170	0.00014091	6.49E-06	0.0039116
194	3842.9	1119.7	0.00089307	73524	73527	455.93	1030.2	1530.4	1161.9	-3.93E-07	0.00071457	0.15019	0.025209	0.15803	6.3278	423800	448120	2386.8	661.57	790.79	170.13	0.00013997	6.50E-06	0.0039442
194.33	3945.8	1119.1	0.00089357	74034	74037	458.56	1030.3	1530.7	1160.2	-3.93E-07	0.00070984	0.14999	0.025155	0.162	6.1729	424020	448370	2384.8	662.38	791.67	170.25	0.00013905	6.51E-06	0.0039767
194.67	4051	1118.5	0.00089407	74544	74548	461.18	1030.3	1530.9	1158.5	-3.92E-07	0.00070517	0.14978	0.025102	0.16605	6.0224	424230	448630	2382.8	663.2	792.54	170.37	0.00013813	6.52E-06	0.0040093
195	4158.5	1117.8	0.00089458	75054	75058	463.8	1030.3	1531.2	1156.8	-3.92E-07	0.00070055	0.14958	0.025049	0.17018	5.8762	424440	448880	2380.8	664.01	793.42	170.49	0.00013722	6.53E-06	0.0040418
195.33	4268.5	1117.2	0.00089508	75565	75569	466.42	1030.3	1531.5	1155.1	-3.91E-07	0.00069597	0.14938	0.024996	0.1744	5.7341	424660	449130	2378.9	664.82	794.31	170.61	0.00013632	6.54E-06	0.0040744
195.67	4380.9	1116.6	0.00089558	76075	76079	469.03	1030.4	1531.7	1153.4	-3.91E-07	0.00069144	0.14918	0.024942	0.1787	5.596	424870	449380	2376.9	665.64	795.19	170.73	0.00013543	6.55E-06	0.004107
196	4495.8	1116	0.00089609	76586	76590	471.64	1030.4	1532	1151.7	-3.91E-07	0.00068695	0.14898	0.024889	0.18309	5.4617	425080	449640	2374.9	666.46	796.08	170.85	0.00013454	6.56E-06	0.0041395
196.33	4613.3	1115.3	0.0008966	77097	77101	474.24	1030.4	1532.3	1150	-3.90E-07	0.00068251	0.14878	0.024836	0.18757	5.3312	425300	449890	2373	667.28	796.97	170.97	0.00013366	6.58E-06	0.0041721
196.67	4733.3	1114.7	0.0008971	77607	77612	476.84	1030.5	1532.6	1148.3	-0.00000039	0.00067811	0.14858	0.024783	0.19215	5.2044	425510	450140	2371.1	668.1	797.86	171.09	0.00013279	6.59E-06	0.0042047
197	4856	1114.1	0.00089761	78118	78123	479.44	1030.5	1532.8	1146.6	-3.90E-07	0.00067376	0.14838	0.02473	0.19681	5.081	425720	450400	2369.2	668.92	798.75	171.21	0.00013192	6.60E-06	0.0042372
197.33	4981.3	1113.4	0.00089812	78629	78634	482.03	1030.5	1533.1	1144.9	-3.89E-07	0.00066945	0.14818	0.024677	0.20157	4.9611	425940	450650	2367.2	669.74	799.65	171.33	0.00013106	6.61E-06	0.0042698
197.67	5109.4	1112.8	0.00089863	79140	79145	484.61	1030.6	1533.4	1143.2	-3.89E-07	0.00066518	0.14798	0.024623	0.20642	4.8444	426150	450900	2365.3	670.56	800.55	171.45	0.00013021	6.62E-06	0.0043024
198	5240.2	1112.2	0.00089914	79651	79656	487.2	1030.6	1533.7	1141.5	-3.89E-07	0.00066096	0.14778	0.02457	0.21137	4.731	426370	451160	2363.5	671.39	801.45	171.57	0.00012937	6.63E-06	0.004335
198.33	5373.9	1111.5	0.00089965	80163	80167	489.78	1030.7	1534	1139.8	-3.88E-07	0.00065677	0.14759	0.024517	0.21642	4.6207	426580	451410	2361.6	672.22	802.35	171.69	0.00012853	6.64E-06	0.0043676
198.67	5510.3	1110.9	0.00090016	80674	80679	492.35	1030.7	1534.3	1138.1	-3.88E-07	0.00065263	0.14739	0.024464	0.22157	4.5133	426790	451660	2359.7	673.04	803.26	171.8	0.0001277	6.65E-06	0.0044002
199	5649.8	1110.3	0.00090067	81185	81190	494.93	1030.8	1534.6	1136.4	-3.87E-07	0.00064853	0.14719	0.024411	0.22681	4.4089	427010	451920	2357.9	673.87	804.17	171.92	0.00012688	6.66E-06	0.0044328
199.33	5792.1	1109.6	0.00090119	81697	81702	497.49	1030.8	1534.9	1134.7	-3.87E-07	0.00064447	0.14699	0.024358	0.23216	4.3073	427220	452170	2356	674.7	805.08	172.04	0.00012606	6.68E-06	0.0044654
199.67	5937.5	1109	0.0009017	82209	82214	500.06	1030.9	1535.2	1133	-3.87E-07	0.00064044	0.14679	0.024305	0.23762	4.2084	427440	452430	2354.2	675.54	805.99	172.16	0.00012525	6.69E-06	0.004498
200	6085.9	1108.4	0.00090221	82720	82726	502.62	1031	1535.6	1131.3	-3.86E-07	0.00063646	0.1466	0.024252	0.24318	4.1122	427650	452680	2352.4	676.37	806.9	172.27	0.00012445	6.70E-06	0.0045306
200.33	6237.5	1107.8	0.00090273	83232	83238	505.18	1031	1535.9	1129.6	-3.86E-07	0.00063251	0.1464	0.024199	0.24885	4.0185	427870	452930	2350.6	677.2	807.82	172.39	0.00012366	6.71E-06	0.0045632
200.67	6392.2	1107.1	0.00090325	83744	83750	507.73	1031.1	1536.2	1128	-3.85E-07	0.0006286	0.1462	0.024146	0.25462	3.9274	428080	453190	2348.8	678.04	808.74	172.51	0.00012287	6.72E-06	0.0045958
201	6550.1	1106.5	0.00090376	84256	84262	510.28	1031.2	1536.5	1126.3	-3.85E-07	0.00062473	0.14601	0.024093	0.26051	3.8386	428300	453440	2347	678.88	809.67	172.62	0.00012208	6.73E-06	0.0046284
201.33	6711.2	1105.9	0.00090428	84768	84774	512.83	1031.3	1536.9	1124.6	-3.85E-07	0.00062089	0.14581	0.024041	0.26651	3.7522	428510	453700	2345.2	679.72	810.59	172.74	0.00012131	6.74E-06	0.004661
201.67	6875.7	1105.2	0.0009048	85281	85287	515.37	1031.3	1537.2	1122.9	-3.84E-07	0.00061709	0.14561	0.023988	0.27262	3.6681	428730	453950	2343.4	680.56	811.52	172.85	0.00012054	6.75E-06	0.0046936
202	7043.6	1104.6	0.00090532	85793	85799	517.91	1031.4	1537.5	1121.2	-3.84E-07	0.00061333	0.14542	0.023935	0.27885	3.5862	428940	454200	2341.7	681.4	812.45	172.97	0.00011977	6.76E-06	0.0047262
202.33	7214.9	1103.9	0.00090584	86306	86312	520.44	1031.5	1537.9	1119.6	-3.83E-07	0.0006096	0.14522	0.023882	0.28519	3.5064	429160	454460	2339.9	682.24	813.38	173.08	0.00011901	6.78E-06	0.0047589
202.67	7389.6	1103.3	0.00090636	86818	86825	522.97	1031.6	1538.2	1117.9	-3.83E-07	0.0006059	0.14503	0.023829	0.29165	3.4287	429380	454710	2338.2	683.09	814.32	173.2	0.00011826	6.79E-06	0.0047915
203	7567.9	1102.7	0.00090688	87331	87338	525.5	1031.7	1538.6	1116.2	-3.83E-07	0.00060224	0.14483	0.023777	0.29823	3.3531	429590	454970	2336.5	683.93	815.26	173.31	0.00011752	6.80E-06	0.0048241
203.33	7749.8	1102	0.00090741	87844	87851	528.03	1031.8	1539	1114.5	-3.82E-07	0.00059862	0.14464	0.023724	0.30494	3.2794	429810	455220	2334.8	684.78	816.2	173.42	0.00011678	6.81E-06	0.0048568
203.67	7935.3	1101.4	0.00090793	88357	88364	530.55	1031.8	1539.3	1112.9	-3.82E-07	0.00059502	0.14445	0.023671	0.31177	3.2075	430020	455480	2333.1	685.63	817.14	173.54	0.00011604	6.82E-06	0.0048894
204	8124.6	1100.8	0.00090845	88870	88877	533.07	1031.9	1539.7	1111.2	-3.81E-07	0.00059146	0.14425	0.023618	0.31872	3.1376	430240	455730	2331.4	686.48	818.09	173.65	0.00011531	6.83E-06	0.0049221
204.33	8317.6	1100.1	0.00090898	89383	89391	535.58	1032	1540	1109.5	-3.81E-07	0.00058793	0.14406	0.023566	0.3258	3.0694	430460	455990	2329.7	687.33	819.04	173.76	0.00011459	6.84E-06	0.0049547
204.67	8514.4	1099.5	0.00090951	89896	89904	538.09	1032.1	1540.4	1107.8	-3.80E-07	0.00058444	0.14386	0.023513	0.33301	3.0029	430670	456240	2328	688.19	819.99	173.87	0.00011388	6.85E-06	0.0049874
205	8715.1	1098.9	0.00091003	90410	90418	540.6	1032.3	1540.8	1106.2	-0.00000038	0.00058097	0.14367	0.02346	0.34035	2.9382	430890	456490	2326.3	689.04	820.94	173.99	0.00011317	6.86E-06	0.00502
205.33	8919.7	1098.2	0.00091056	90924	90932	543.1	1032.4	1541.2	1104.5	-3.80E-07	0.00057754	0.14348	0.023408	0.34782	2.8751	431100	456750	2324.7	689.9	821.9	174.1	0.00011246	6.88E-06	0.0050527
205.67	9128.3	1097.6	0.00091109	91437	91446	545.6	1032.5	1541.6	1102.8	-3.79E-07	0.00057414	0.14329	0.023355	0.35542	2.8135	431320	457000	2323	690.76	822.86	174.21	0.00011176	6.89E-06	0.0050853
206	9341	1096.9	0.00091162	91951	91960	548.1	1032.6	1542	1101.2	-3.79E-07	0.00057077	0.14309	0.023303	0.36317	2.7536	431540	457260	2321.4	691.62	823.82	174.32	0.00011107	6.90E-06	0.005118
206.33	9557.8	1096.3	0.00091215	92465	92474	550.59	1032.7	1542.4	1099.5	-3.78E-07	0.00056742	0.1429	0.02325	0.37104	2.6951	431760	457510	2319.8	692.48	824.79	174.43	0.00011038	6.91E-06	0.0051507
206.67	9778.8	1095.7	0.00091268	92979	92988	553.08	1032.8	1542.7	1097.8	-3.78E-07	0.00056411	0.14271	0.023197	0.37906	2.6381	431970	457770	2318.1	693.34	825.76	174.54	0.0001097	6.92E-06	0.0051833
207	10004	1095	0.00091321	93493	93503	555.56	1032.9	1543.2	1096.2	-3.77E-07	0.00056083	0.14252	0.023145	0.38722	2.5825	432190	458020	2316.5	694.2	826.73	174.65	0.00010902	6.93E-06	0.005216
207.33	10234	1094.4	0.00091375	94008	94017	558.05	1033.1	1543.6	1094.5	-3.77E-07	0.00055757	0.14233	0.023092	0.39553	2.5283	432410	458280	2314.9	695.07	827.7	174.76	0.00010835	6.94E-06	0.0052487
207.67	10468	1093.8	0.00091428	94522	94532	560.53	1033.2	1544	1092.9	-3.76E-07	0.00055435	0.14214	0.02304	0.40398	2.4754	432620	458530	2313.4	695.93	828.68	174.87	0.00010769	6.95E-06	0.0052814
208	10706	1093.1	0.00091482	95037	95047	563	1033.3	1544.4	1091.2	-3.76E-07	0.00055115	0.14195	0.022988	0.41257	2.4238	432840	458790	2311.8	696.8	829.66	174.98	0.00010702	6.96E-06	0.0053141
208.33	10949	1092.5	0.00091535	95552	95562	565.48	1033.5	1544.8	1089.5	-3.76E-07	0.00054798	0.14176	0.022935	0.42132	2.3735	433060	459050	2310.2	697.67	830.64	175.09	0.00010637	6.98E-06	0.0053468
208.67	11196	1091.8	0.00091589	96067	96077	567.95	1033.6	1545.2	1087.9	-3.75E-07	0.00054484	0.14157	0.022883	0.43022	2.3244	433280	459300	2308.6	698.54	831.62	175.2	0.00010572	6.99E-06	0.0053795
209	11448	1091.2	0.00091643	96582	96592	570.41	1033.7	1545.7	1086.2	-3.75E-07	0.00054172	0.14138	0.02283	0.43927	2.2765	433490	459560	2307.1	699.42	832.61	175.3	0.00010507	7.00E-06	0.0054122
209.33	11705	1090.6	0.00091696	97097	97108	572.88	1033.9	1546.1	1084.6	-3.74E-07	0.00053864	0.14119	0.022778	0.44847	2.2298	433710	459810	2305.5	700.29	833.6	175.41	0.00010443	7.01E-06	0.0054449
209.67	11966	1089.9	0.0009175	97612	97623	575.34	1034	1546.5	1082.9	-3.74E-07	0.00053557	0.141	0.022726	0.45783	2.1842	433930	460070	2304	701.17	834.6	175.52	0.0001038	7.02E-06	0.0054776
210	12233	1089.3	0.00091804	98128	98139	577.79	1034.2	1547	1081.2	-3.73E-07	0.00053254	0.14081	0.022673	0.46735	2.1397	434150	460320	2302.5	702.04	835.59	175.63	0.00010317	7.03E-06	0.0055104
210.33	12504	1088.6	0.00091858	98643	98655	580.25	1034.3	1547.4	1079.6	-3.73E-07	0.00052953	0.14062	0.022621	0.47703	2.0963	434360	460580	2301	702.92	836.59	175.73	0.00010254	7.04E-06	0.0055431
210.67	12780	1088	0.00091913	99159	99171	582.7	1034.5	1547.8	1077.9	-3.72E-07	0.00052654	0.14043	0.022569	0.48688	2.0539	434580	460830	2299.4	703.8	837.59	175.84	0.00010192	7.05E-06	0.0055758
211	13062	1087.3	0.00091967	99675	99687	585.14	1034.6	1548.3	1076.3	-3.72E-07	0.00052358	0.14024	0.022516	0.49689	2.0125	434800	461090	2297.9	704.69	838.6	175.94	0.00010131	7.06E-06	0.0056085
211.33	13348	1086.7	0.00092021	100190	100200	587.59	1034.8	1548.8	1074.6	-3.71E-07	0.00052065	0.14005	0.022464	0.50706	1.9721	435020	461340	2296.5	705.57	839.61	176.05	0.0001007	7.08E-06	0.0056413
211.67	13640	1086.1	0.00092076	100710	100720	590.03	1035	1549.2	1073	-3.71E-07	0.00051774	0.13986	0.022412	0.51741	1.9327	435240	461600	2295	706.45	840.62	176.16	0.00010009	7.09E-06	0.005674
212	13936	1085.4	0.0009213	101220	101240	592.47	1035.1	1549.7	1071.3	-3.70E-07	0.00051485	0.13968	0.02236	0.52792	1.8942	435460	461850	2293.5	707.34	841.63	176.26	0.000099492	7.10E-06	0.0057068
212.33	14239	1084.8	0.00092185	101740	101750	594.9	1035.3	1550.1	1069.7	-3.70E-07	0.00051199	0.13949	0.022308	0.53861	1.8566	435670	462110	2292	708.23	842.65	176.36	0.000098896	7.11E-06	0.0057395
212.67	14546	1084.1	0.0009224	102260	102270	597.33	1035.5	1550.6	1068	-3.69E-07	0.00050915	0.1393	0.022255	0.54948	1.8199	435890	462370	2290.6	709.12	843.67	176.47	0.000098305	7.12E-06	0.0057723
213	14859	1083.5	0.00092295	102770	102790	599.76	1035.7	1551.1	1066.4	-3.69E-07	0.00050634	0.13912	0.022203	0.56052	1.784	436110	462620	2289.1	710.01	844.69	176.57	0.000097718	7.13E-06	0.0058051
213.33	15178	1082.8	0.0009235	103290	103300	602.18	1035.8	1551.6	1064.7	-3.68E-07	0.00050355	0.13893	0.022151	0.57175	1.749	436330	462880	2287.7	710.9	845.72	176.68	0.000097136	7.14E-06	0.0058378
213.67	15502	1082.2	0.00092405	103810	103820	604.61	1036	1552	1063.1	-3.68E-07	0.00050078	0.13874	0.022099	0.58315	1.7148	436550	463130	2286.2	711.8	846.75	176.78	0.000096559	7.15E-06	0.0058706
214	15832	1081.6	0.0009246	104330	104340	607.03	1036.2	1552.5	1061.4	-3.67E-07	0.00049803	0.13856	0.022047	0.59474	1.6814	436770	463390	2284.8	712.69	847.78	176.88	0.000095986	7.16E-06	0.0059034
214.33	16168	1080.9	0.00092515	104840	104860	609.44	1036.4	1553	1059.8	-3.67E-07	0.00049531	0.13837	0.021995	0.60652	1.6488	436990	463640	2283.4	713.59	848.82	176.98	0.000095417	7.18E-06	0.0059362
214.67	16509	1080.3	0.0009257	105360	105380	611.86	1036.6	1553.5	1058.1	-3.66E-07	0.00049261	0.13818	0.021943	0.61848	1.6169	437210	463900	2282	714.49	849.86	177.08	0.000094853	7.19E-06	0.005969
215	16857	1079.6	0.00092626	105880	105890	614.27	1036.8	1554	1056.5	-3.66E-07	0.00048993	0.138	0.021891	0.63064	1.5857	437420	464150	2280.6	715.39	850.9	177.19	0.000094293	7.20E-06	0.0060018
215.33	17210	1079	0.00092681	106400	106410	616.67	1036.9	1554.5	1054.8	-3.65E-07	0.00048727	0.13781	0.021839	0.64298	1.5552	437640	464410	2279.2	716.3	851.94	177.29	0.000093737	7.21E-06	0.0060346
215.67	17570	1078.3	0.00092737	106910	106930	619.08	1037.1	1555	1053.2	-3.65E-07	0.00048463	0.13763	0.021787	0.65553	1.5255	437860	464660	2277.8	717.2	852.99	177.39	0.000093186	7.22E-06	0.0060674
216	17935	1077.7	0.00092792	107430	107450	621.48	1037.3	1555.5	1051.5	-3.64E-07	0.00048202	0.13744	0.021735	0.66827	1.4964	438080	464920	2276.4	718.11	854.04	177.49	0.000092639	7.23E-06	0.0061002
216.33	18307	1077	0.00092848	107950	107970	623.88	1037.5	1556.1	1049.9	-3.64E-07	0.00047942	0.13726	0.021683	0.68121	1.468	438300	465180	2275.1	719.01	855.1	177.59	0.000092097	7.24E-06	0.0061331
216.67	18686	1076.4	0.00092904	108470	108490	626.27	1037.7	1556.6	1048.2	-3.63E-07	0.00047685	0.13708	0.021631	0.69435	1.4402	438520	465430	2273.7	719.92	856.16	177.69	0.000091558	7.25E-06	0.0061659
217	19071	1075.7	0.0009296	108990	109010	628.67	1038	1557.1	1046.6	-3.63E-07	0.00047429	0.13689	0.02158	0.7077	1.413	438740	465690	2272.4	720.83	857.22	177.79	0.000091024	7.26E-06	0.0061987
217.33	19462	1075.1	0.00093016	109510	109530	631.06	1038.2	1557.6	1045	-3.62E-07	0.00047176	0.13671	0.021528	0.72126	1.3865	438960	465940	2271	721.75	858.28	177.88	0.000090494	7.28E-06	0.0062316
217.67	19860	1074.4	0.00093072	110030	110040	633.44	1038.4	1558.2	1043.3	-3.61E-07	0.00046925	0.13652	0.021476	0.73502	1.3605	439180	466200	2269.7	722.66	859.35	177.98	0.000089968	7.29E-06	0.0062644
218	20264	1073.8	0.00093129	110550	110560	635.83	1038.6	1558.7	1041.7	-3.61E-07	0.00046675	0.13634	0.021424	0.749	1.3351	439400	466450	2268.3	723.57	860.42	178.08	0.000089445	7.30E-06	0.0062973
218.33	20675	1073.1	0.00093185	111070	111080	638.21	1038.8	1559.2	1040	-3.60E-07	0.00046428	0.13616	0.021372	0.76319	1.3103	439620	466710	2267	724.49	861.49	178.18	0.000088927	7.31E-06	0.0063302
218.67	21094	1072.5	0.00093242	111580	111600	640.59	1039	1559.8	1038.4	-3.60E-07	0.00046182	0.13597	0.021321	0.77759	1.286	439840	466960	2265.7	725.41	862.57	178.28	0.000088413	7.32E-06	0.006363
219	21519	1071.8	0.00093298	112100	112120	642.96	1039.3	1560.3	1036.7	-3.59E-07	0.00045938	0.13579	0.021269	0.79222	1.2623	440060	467220	2264.4	726.33	863.65	178.37	0.000087903	7.33E-06	0.0063959
219.33	21951	1071.2	0.00093355	112620	112650	645.33	1039.5	1560.9	1035.1	-3.59E-07	0.00045697	0.13561	0.021217	0.80706	1.2391	440280	467470	2263.1	727.25	864.74	178.47	0.000087397	7.34E-06	0.0064288
219.67	22390	1070.5	0.00093412	113140	113170	647.7	1039.7	1561.4	1033.5	-3.58E-07	0.00045457	0.13543	0.021166	0.82213	1.2163	440500	467730	2261.8	728.18	865.82	178.56	0.000086894	7.35E-06	0.0064617
220	22836	1069.9	0.00093469	113670	113690	650.07	1039.9	1562	1031.8	-3.58E-07	0.00045219	0.13525	0.021114	0.83743	1.1941	440720	467990	2260.5	729.1	866.91	178.66	0.000086396	7.36E-06	0.0064946
220.33	23290	1069.2	0.00093526	114190	114210	652.44	1040.2	1562.5	1030.2	-3.57E-07	0.00044982	0.13506	0.021062	0.85296	1.1724	440940	468240	2259.2	730.03	868.01	178.75	0.000085901	7.38E-06	0.0065275
220.67	23750	1068.6	0.00093583	114710	114730	654.8	1040.4	1563.1	1028.5	-3.56E-07	0.00044748	0.13488	0.021011	0.86871	1.1511	441160	468500	2258	730.96	869.1	178.85	0.00008541	7.39E-06	0.0065604
221	24219	1067.9	0.0009364	115230	115250	657.16	1040.6	1563.7	1026.9	-3.56E-07	0.00044515	0.1347	0.020959	0.8847	1.1303	441380	468750	2256.7	731.89	870.2	178.94	0.000084923	7.40E-06	0.0065933
221.33	24695	1067.3	0.00093697	115750	115770	659.51	1040.9	1564.3	1025.3	-3.55E-07	0.00044284	0.13452	0.020908	0.90093	1.11	441600	469010	2255.5	732.82	871.31	179.04	0.000084439	7.41E-06	0.0066263
221.67	25178	1066.6	0.00093755	116270	116290	661.87	1041.1	1564.8	1023.6	-3.55E-07	0.00044055	0.13434	0.020856	0.91739	1.09	441820	469260	2254.2	733.75	872.41	179.13	0.000083959	7.42E-06	0.0066592
222	25669	1066	0.00093812	116790	116820	664.22	1041.4	1565.4	1022	-3.54E-07	0.00043827	0.13416	0.020805	0.9341	1.0705	442040	469520	2253	734.69	873.53	179.22	0.000083483	7.43E-06	0.0066921
222.33	26168	1065.3	0.0009387	117310	117340	666.57	1041.6	1566	1020.4	-3.53E-07	0.00043602	0.13398	0.020753	0.95105	1.0515	442260	469770	2251.7	735.63	874.64	179.32	0.000083011	7.44E-06	0.0067251
222.67	26675	1064.7	0.00093927	117840	117860	668.91	1041.9	1566.6	1018.7	-3.53E-07	0.00043378	0.1338	0.020702	0.96825	1.0328	442480	470030	2250.5	736.56	875.76	179.41	0.000082541	7.45E-06	0.0067581
223	27190	1064	0.00093985	118360	118380	671.25	1042.1	1567.2	1017.1	-3.52E-07	0.00043155	0.13362	0.02065	0.9857	1.0145	442700	470280	2249.3	737.5	876.88	179.5	0.000082076	7.46E-06	0.006791
223.33	27713	1063.3	0.00094043	118880	118910	673.59	1042.4	1567.8	1015.5	-3.52E-07	0.00042934	0.13344	0.020599	1.0034	0.99661	442920	470540	2248.1	738.45	878	179.59	0.000081614	7.48E-06	0.006824
223.67	28245	1062.7	0.00094101	119400	119430	675.93	1042.6	1568.4	1013.8	-3.51E-07	0.00042715	0.13326	0.020547	1.0214	0.9791	443140	470790	2246.9	739.39	879.13	179.68	0.000081155	7.49E-06	0.006857
224	28784	1062	0.00094159	119920	119950	678.27	1042.9	1569	1012.2	-3.50E-07	0.00042498	0.13308	0.020496	1.0396	0.96194	443360	471050	2245.7	740.33	880.26	179.77	0.0000807	7.50E-06	0.00689
224.33	29332	1061.4	0.00094218	120450	120480	680.6	1043.1	1569.6	1010.5	-3.50E-07	0.00042282	0.1329	0.020445	1.058	0.94515	443580	471300	2244.5	741.28	881.4	179.86	0.000080249	7.51E-06	0.006923
224.67	29888	1060.7	0.00094276	120970	121000	682.93	1043.4	1570.2	1008.9	-3.49E-07	0.00042067	0.13272	0.020393	1.0768	0.92871	443800	471560	2243.3	742.23	882.53	179.95	0.000079801	7.52E-06	0.006956
225	30453	1060.1	0.00094335	121490	121520	685.26	1043.7	1570.8	1007.3	-3.49E-07	0.00041855	0.13254	0.020342	1.0958	0.9126	444020	471810	2242.1	743.18	883.68	180.04	0.000079356	7.53E-06	0.006989
225.33	31027	1059.4	0.00094393	122020	122050	687.58	1043.9	1571.4	1005.6	-3.48E-07	0.00041643	0.13237	0.020291	1.115	0.89684	444240	472060	2240.9	744.13	884.82	180.13	0.000078914	7.54E-06	0.007022
225.67	31609	1058.7	0.00094452	122540	122570	689.9	1044.2	1572	1004	-3.47E-07	0.00041434	0.13219	0.020239	1.1346	0.88139	444460	472320	2239.8	745.09	885.97	180.22	0.000078476	7.55E-06	0.0070551
226	32200	1058.1	0.00094511	123060	123100	692.22	1044.5	1572.7	1002.4	-3.47E-07	0.00041225	0.13201	0.020188	1.1544	0.86627	444680	472570	2238.6	746.04	887.12	180.31	0.000078041	7.57E-06	0.0070881
226.33	32800	1057.4	0.0009457	123590	123620	694.54	1044.8	1573.3	1000.7	-3.46E-07	0.00041019	0.13183	0.020137	1.1745	0.85145	444900	472830	2237.4	747	888.28	180.39	0.000077609	7.58E-06	0.0071212
226.67	33410	1056.8	0.00094629	124110	124140	696.86	1045	1573.9	999.11	-3.46E-07	0.00040813	0.13166	0.020086	1.1948	0.83693	445120	473080	2236.3	747.96	889.44	180.48	0.000077181	7.59E-06	0.0071542
227	34028	1056.1	0.00094688	124640	124670	699.17	1045.3	1574.6	997.48	-3.45E-07	0.0004061	0.13148	0.020035	1.2155	0.82272	445340	473340	2235.1	748.92	890.6	180.57	0.000076756	7.60E-06	0.0071873
227.33	34656	1055.4	0.00094747	125160	125200	701.48	1045.6	1575.2	995.85	-3.44E-07	0.00040407	0.1313	0.019983	1.2364	0.80879	445560	473590	2234	749.88	891.77	180.65	0.000076334	7.61E-06	0.0072204
227.67	35293	1054.8	0.00094807	125690	125720	703.79	1045.9	1575.9	994.22	-3.44E-07	0.00040206	0.13113	0.019932	1.2576	0.79514	445780	473850	2232.9	750.84	892.94	180.74	0.000075915	7.62E-06	0.0072535
228	35939	1054.1	0.00094866	126210	126250	706.09	1046.2	1576.5	992.58	-3.43E-07	0.00040007	0.13095	0.019881	1.2792	0.78177	446000	474100	2231.8	751.81	894.11	180.82	0.000075499	7.63E-06	0.0072866
228.33	36596	1053.5	0.00094926	126740	126770	708.39	1046.5	1577.2	990.95	-3.42E-07	0.00039809	0.13077	0.01983	1.301	0.76866	446220	474350	2230.6	752.77	895.29	180.91	0.000075086	7.64E-06	0.0073197
228.67	37261	1052.8	0.00094985	127260	127300	710.69	1046.7	1577.8	989.32	-3.42E-07	0.00039612	0.1306	0.019779	1.3231	0.75582	446440	474610	2229.5	753.74	896.47	180.99	0.000074676	7.65E-06	0.0073528
229	37937	1052.1	0.00095045	127790	127820	712.99	1047	1578.5	987.69	-3.41E-07	0.00039417	0.13042	0.019728	1.3455	0.74324	446660	474860	2228.4	754.71	897.66	181.08	0.00007427	7.67E-06	0.0073859
229.33	38622	1051.5	0.00095105	128310	128350	715.29	1047.3	1579.1	986.06	-3.40E-07	0.00039223	0.13025	0.019677	1.3682	0.73091	446890	475120	2227.3	755.68	898.85	181.16	0.000073866	7.68E-06	0.0074191
229.67	39318	1050.8	0.00095165	128840	128880	717.58	1047.6	1579.8	984.43	-3.40E-07	0.0003903	0.13007	0.019626	1.3912	0.71882	447110	475370	2226.2	756.66	900.04	181.24	0.000073465	7.69E-06	0.0074522
230	40024	1050.1	0.00095225	129370	129410	719.87	1047.9	1580.5	982.8	-3.39E-07	0.00038839	0.12989	0.019575	1.4145	0.70697	447330	475620	2225.2	757.63	901.24	181.32	0.000073068	7.70E-06	0.0074854
230.33	40739	1049.5	0.00095286	129890	129930	722.16	1048.2	1581.1	981.17	-3.38E-07	0.00038649	0.12972	0.019524	1.4381	0.69535	447550	475880	2224.1	758.61	902.44	181.41	0.000072673	7.71E-06	0.0075186
230.67	41466	1048.8	0.00095346	130420	130460	724.44	1048.5	1581.8	979.54	-3.38E-07	0.00038461	0.12954	0.019473	1.4621	0.68397	447770	476130	2223	759.59	903.64	181.49	0.000072281	7.72E-06	0.0075517
231	42202	1048.1	0.00095407	130950	130990	726.73	1048.8	1582.5	977.91	-3.37E-07	0.00038274	0.12937	0.019423	1.4863	0.6728	447990	476380	2221.9	760.57	904.85	181.57	0.000071892	7.73E-06	0.0075849
231.33	42949	1047.5	0.00095467	131480	131520	729.01	1049.1	1583.2	976.28	-3.36E-07	0.00038088	0.1292	0.019372	1.5109	0.66186	448210	476640	2220.9	761.55	906.06	181.65	0.000071506	7.74E-06	0.0076181
231.67	43707	1046.8	0.00095528	132000	132040	731.29	1049.5	1583.9	974.65	-3.36E-07	0.00037903	0.12902	0.019321	1.5358	0.65113	448430	476890	2219.8	762.54	907.27	181.73	0.000071123	7.75E-06	0.0076514
232	44476	1046.1	0.00095589	132530	132570	733.56	1049.8	1584.6	973.02	-3.35E-07	0.00037719	0.12885	0.01927	1.561	0.6406	448650	477140	2218.8	763.52	908.49	181.81	0.000070743	7.77E-06	0.0076846
232.33	45255	1045.5	0.0009565	133060	133100	735.84	1050.1	1585.2	971.39	-3.34E-07	0.00037537	0.12867	0.019219	1.5866	0.63028	448870	477400	2217.7	764.51	909.72	181.89	0.000070365	7.78E-06	0.0077178
232.67	46045	1044.8	0.00095711	133590	133630	738.11	1050.4	1585.9	969.77	-3.34E-07	0.00037356	0.1285	0.019168	1.6125	0.62016	449090	477650	2216.7	765.5	910.94	181.97	0.00006999	7.79E-06	0.0077511
233	46847	1044.1	0.00095773	134110	134160	740.38	1050.7	1586.6	968.14	-3.33E-07	0.00037176	0.12833	0.019118	1.6387	0.61024	449310	477900	2215.7	766.49	912.17	182.04	0.000069618	7.80E-06	0.0077843
233.33	47660	1043.5	0.00095834	134640	134690	742.65	1051	1587.4	966.51	-3.32E-07	0.00036998	0.12815	0.019067	1.6653	0.6005	449530	478150	2214.6	767.48	913.41	182.12	0.000069249	7.81E-06	0.0078176
233.67	48484	1042.8	0.00095895	135170	135220	744.91	1051.3	1588.1	964.88	-3.31E-07	0.00036821	0.12798	0.019016	1.6922	0.59095	449760	478410	2213.6	768.47	914.65	182.2	0.000068882	7.82E-06	0.0078509
234	49319	1042.1	0.00095957	135700	135750	747.17	1051.7	1588.8	963.25	-3.31E-07	0.00036644	0.12781	0.018966	1.7194	0.58159	449980	478660	2212.6	769.47	915.89	182.28	0.000068518	7.83E-06	0.0078842
234.33	50166	1041.5	0.00096019	136230	136280	749.43	1052	1589.5	961.63	-3.30E-07	0.00036469	0.12764	0.018915	1.747	0.5724	450200	478910	2211.6	770.47	917.13	182.35	0.000068157	7.84E-06	0.0079175
234.67	51025	1040.8	0.00096081	136760	136810	751.69	1052.3	1590.2	960	-3.29E-07	0.00036296	0.12746	0.018864	1.775	0.56339	450420	479160	2210.6	771.47	918.38	182.43	0.000067798	7.85E-06	0.0079508
235	51896	1040.1	0.00096143	137290	137340	753.95	1052.7	1590.9	958.37	-3.29E-07	0.00036123	0.12729	0.018814	1.8033	0.55454	450640	479420	2209.6	772.47	919.64	182.5	0.000067442	7.87E-06	0.0079841
235.33	52778	1039.4	0.00096205	137820	137870	756.2	1053	1591.7	956.74	-3.28E-07	0.00035951	0.12712	0.018763	1.832	0.54586	450860	479670	2208.6	773.47	920.9	182.58	0.000067088	7.88E-06	0.0080174
235.67	53673	1038.8	0.00096267	138350	138400	758.45	1053.3	1592.4	955.12	-3.27E-07	0.00035781	0.12695	0.018713	1.861	0.53735	451080	479920	2207.6	774.47	922.16	182.65	0.000066737	7.89E-06	0.0080508
236	54579	1038.1	0.0009633	138880	138930	760.7	1053.6	1593.1	953.49	-3.26E-07	0.00035612	0.12678	0.018662	1.8904	0.529	451300	480170	2206.6	775.48	923.42	182.73	0.000066389	7.90E-06	0.0080842
236.33	55498	1037.4	0.00096392	139410	139470	762.95	1054	1593.9	951.86	-3.26E-07	0.00035444	0.12661	0.018612	1.9201	0.5208	451520	480420	2205.7	776.49	924.69	182.8	0.000066043	7.91E-06	0.0081175
236.67	56430	1036.8	0.00096455	139940	140000	765.2	1054.3	1594.6	950.24	-3.25E-07	0.00035277	0.12643	0.018561	1.9503	0.51275	451740	480680	2204.7	777.49	925.97	182.87	0.0000657	7.92E-06	0.0081509
237	57373	1036.1	0.00096518	140470	140530	767.44	1054.7	1595.3	948.61	-3.24E-07	0.00035111	0.12626	0.018511	1.9808	0.50486	451960	480930	2203.7	778.51	927.24	182.94	0.000065359	7.93E-06	0.0081843
237.33	58330	1035.4	0.00096581	141010	141060	769.68	1055	1596.1	946.98	-3.23E-07	0.00034946	0.12609	0.01846	2.0116	0.49711	452180	481180	2202.8	779.52	928.53	183.02	0.000065021	7.94E-06	0.0082178
237.67	59299	1034.7	0.00096644	141540	141590	771.92	1055.3	1596.8	945.36	-3.23E-07	0.00034782	0.12592	0.01841	2.0429	0.4895	452400	481430	2201.8	780.53	929.81	183.09	0.000064685	7.96E-06	0.0082512
238	60281	1034.1	0.00096707	142070	142130	774.16	1055.7	1597.6	943.73	-3.22E-07	0.00034619	0.12575	0.01836	2.0746	0.48203	452620	481680	2200.9	781.55	931.1	183.16	0.000064351	7.97E-06	0.0082846
238.33	61276	1033.4	0.0009677	142600	142660	776.39	1056	1598.3	942.11	-3.21E-07	0.00034458	0.12558	0.018309	2.1066	0.4747	452840	481930	2199.9	782.57	932.4	183.23	0.00006402	7.98E-06	0.0083181
238.67	62285	1032.7	0.00096834	143130	143190	778.62	1056.4	1599.1	940.48	-3.20E-07	0.00034297	0.12541	0.018259	2.139	0.4675	453070	482180	2199	783.58	933.69	183.3	0.000063691	7.99E-06	0.0083516
239	63306	1032	0.00096897	143670	143730	780.85	1056.7	1599.9	938.85	-3.20E-07	0.00034137	0.12524	0.018209	2.1718	0.46044	453290	482430	2198	784.61	935	183.37	0.000063365	8.00E-06	0.008385
239.33	64341	1031.3	0.00096961	144200	144260	783.08	1057.1	1600.6	937.23	-3.19E-07	0.00033979	0.12507	0.018159	2.2051	0.4535	453510	482680	2197.1	785.63	936.3	183.44	0.000063041	8.01E-06	0.0084185
239.67	65389	1030.7	0.00097025	144730	144800	785.31	1057.4	1601.4	935.6	-3.18E-07	0.00033821	0.1249	0.018108	2.2387	0.44669	453730	482940	2196.2	786.65	937.61	183.5	0.000062719	8.02E-06	0.0084521
240	66451	1030	0.00097089	145270	145330	787.53	1057.8	1602.2	933.98	-3.17E-07	0.00033665	0.12473	0.018058	2.2727	0.44	453950	483190	2195.3	787.68	938.93	183.57	0.0000624	8.03E-06	0.0084856
240.33	67527	1029.3	0.00097153	145800	145860	789.75	1058.1	1603	932.35	-3.17E-07	0.00033509	0.12457	0.018008	2.3071	0.43344	454170	483440	2194.4	788.71	940.25	183.64	0.000062083	8.04E-06	0.0085191
240.67	68616	1028.6	0.00097217	146330	146400	791.97	1058.5	1603.7	930.73	-3.16E-07	0.00033355	0.1244	0.017958	2.342	0.42699	454390	483690	2193.4	789.73	941.57	183.7	0.000061768	8.06E-06	0.0085527
241	69720	1027.9	0.00097281	146870	146930	794.19	1058.9	1604.5	929.1	-3.15E-07	0.00033201	0.12423	0.017908	2.3773	0.42065	454610	483940	2192.5	790.77	942.9	183.77	0.000061455	8.07E-06	0.0085862
241.33	70838	1027.3	0.00097346	147400	147470	796.41	1059.2	1605.3	927.48	-3.14E-07	0.00033048	0.12406	0.017857	2.4129	0.41443	454830	484190	2191.6	791.8	944.23	183.84	0.000061145	8.08E-06	0.0086198
241.67	71970	1026.6	0.00097411	147940	148010	798.62	1059.6	1606.1	925.85	-3.13E-07	0.00032897	0.12389	0.017807	2.449	0.40832	455050	484440	2190.7	792.83	945.56	183.9	0.000060837	8.09E-06	0.0086534
242	73116	1025.9	0.00097475	148470	148540	800.83	1059.9	1606.9	924.23	-3.13E-07	0.00032746	0.12372	0.017757	2.4856	0.40232	455270	484690	2189.9	793.87	946.9	183.97	0.000060531	8.10E-06	0.008687
242.33	74277	1025.2	0.0009754	149010	149080	803.04	1060.3	1607.7	922.6	-3.12E-07	0.00032596	0.12356	0.017707	2.5225	0.39643	455490	484930	2189	794.91	948.25	184.03	0.000060227	8.11E-06	0.0087207
242.67	75453	1024.5	0.00097605	149540	149620	805.25	1060.7	1608.5	920.97	-3.11E-07	0.00032447	0.12339	0.017657	2.5599	0.39063	455710	485180	2188.1	795.95	949.59	184.09	0.000059925	8.12E-06	0.0087543
243	76643	1023.8	0.00097671	150080	150150	807.46	1061.1	1609.3	919.35	-3.10E-07	0.00032299	0.12322	0.017607	2.5978	0.38495	455930	485430	2187.2	796.99	950.95	184.16	0.000059626	8.13E-06	0.008788
243.33	77848	1023.2	0.00097736	150610	150690	809.66	1061.4	1610.1	917.72	-3.09E-07	0.00032152	0.12305	0.017557	2.636	0.37936	456150	485680	2186.3	798.03	952.3	184.22	0.000059329	8.15E-06	0.0088217
243.67	79069	1022.5	0.00097802	151150	151230	811.87	1061.8	1610.9	916.1	-3.09E-07	0.00032006	0.12289	0.017507	2.6748	0.37386	456370	485930	2185.5	799.07	953.66	184.28	0.000059034	8.16E-06	0.0088554
244	80304	1021.8	0.00097867	151690	151760	814.07	1062.2	1611.7	914.47	-3.08E-07	0.00031861	0.12272	0.017458	2.7139	0.36847	456590	486180	2184.6	800.12	955.03	184.34	0.00005874	8.17E-06	0.0088891
244.33	81555	1021.1	0.00097933	152220	152300	816.26	1062.5	1612.6	912.85	-3.07E-07	0.00031717	0.12255	0.017408	2.7536	0.36317	456810	486430	2183.8	801.17	956.4	184.4	0.000058449	8.18E-06	0.0089228
244.67	82821	1020.4	0.00097999	152760	152840	818.46	1062.9	1613.4	911.23	-3.06E-07	0.00031573	0.12239	0.017358	2.7936	0.35796	457030	486680	2182.9	802.22	957.77	184.46	0.00005816	8.19E-06	0.0089565
245	84103	1019.7	0.00098065	153300	153380	820.66	1063.3	1614.2	909.6	-3.05E-07	0.00031431	0.12222	0.017308	2.8342	0.35284	457250	486920	2182.1	803.27	959.15	184.52	0.000057874	8.20E-06	0.0089903
245.33	85401	1019	0.00098131	153830	153920	822.85	1063.7	1615	907.98	-3.04E-07	0.00031289	0.12205	0.017258	2.8752	0.34781	457470	487170	2181.2	804.32	960.53	184.58	0.000057589	8.21E-06	0.0090241
245.67	86714	1018.4	0.00098198	154370	154460	825.04	1064.1	1615.9	906.35	-3.03E-07	0.00031149	0.12189	0.017208	2.9166	0.34286	457690	487420	2180.4	805.37	961.92	184.64	0.000057306	8.22E-06	0.0090579
246	88044	1017.7	0.00098264	154910	155000	827.23	1064.4	1616.7	904.73	-3.03E-07	0.00031009	0.12172	0.017159	2.9586	0.338	457910	487670	2179.6	806.43	963.31	184.7	0.000057025	8.23E-06	0.0090917
246.33	89390	1017	0.00098331	155450	155540	829.41	1064.8	1617.5	903.1	-3.02E-07	0.00030869	0.12156	0.017109	3.001	0.33322	458130	487920	2178.7	807.49	964.71	184.75	0.000056746	8.25E-06	0.0091255
246.67	90751	1016.3	0.00098398	155990	156080	831.6	1065.2	1618.4	901.48	-3.01E-07	0.00030731	0.12139	0.017059	3.0439	0.32853	458350	488160	2177.9	808.55	966.11	184.81	0.000056469	8.26E-06	0.0091594
247	92130	1015.6	0.00098465	156530	156620	833.78	1065.6	1619.2	899.85	-3.00E-07	0.00030594	0.12123	0.01701	3.0873	0.32391	458570	488410	2177.1	809.61	967.52	184.87	0.000056194	8.27E-06	0.0091932
247.33	93525	1014.9	0.00098532	157070	157160	835.96	1066	1620.1	898.23	-2.99E-07	0.00030457	0.12106	0.01696	3.1311	0.31937	458790	488660	2176.3	810.67	968.93	184.92	0.000055921	8.28E-06	0.0092271
247.67	94936	1014.2	0.00098599	157600	157700	838.14	1066.4	1620.9	896.6	-2.98E-07	0.00030321	0.1209	0.01691	3.1755	0.31491	459010	488900	2175.5	811.73	970.34	184.98	0.00005565	8.29E-06	0.009261
248	96365	1013.5	0.00098667	158140	158240	840.32	1066.8	1621.8	894.98	-2.97E-07	0.00030187	0.12073	0.016861	3.2203	0.31053	459230	489150	2174.6	812.8	971.76	185.03	0.000055381	8.30E-06	0.0092949
248.33	97810	1012.8	0.00098734	158680	158780	842.5	1067.2	1622.7	893.35	-2.97E-07	0.00030052	0.12057	0.016811	3.2657	0.30621	459450	489400	2173.8	813.87	973.18	185.09	0.000055113	8.31E-06	0.0093289
248.67	99273	1012.1	0.00098802	159220	159320	844.67	1067.6	1623.5	891.73	-2.96E-07	0.00029919	0.1204	0.016762	3.3115	0.30197	459670	489640	2173	814.93	974.61	185.14	0.000054848	8.32E-06	0.0093628
249	100750	1011.4	0.0009887	159760	159860	846.84	1067.9	1624.4	890.1	-2.95E-07	0.00029786	0.12024	0.016712	3.3579	0.29781	459890	489890	2172.2	816.01	976.04	185.19	0.000054584	8.34E-06	0.0093968
249.33	102250	1010.7	0.00098938	160310	160410	849.02	1068.3	1625.3	888.48	-2.94E-07	0.00029655	0.12008	0.016663	3.4048	0.29371	460100	490140	2171.5	817.08	977.48	185.24	0.000054323	8.35E-06	0.0094308
249.67	103760	1010	0.00099006	160850	160950	851.18	1068.7	1626.1	886.85	-2.93E-07	0.00029524	0.11991	0.016613	3.4522	0.28967	460320	490380	2170.7	818.15	978.92	185.3	0.000054063	8.36E-06	0.0094648
250	105300	1009.3	0.00099075	161390	161490	853.35	1069.1	1627	885.23	-2.92E-07	0.00029393	0.11975	0.016564	3.5001	0.28571	460540	490630	2169.9	819.23	980.37	185.35	0.000053805	8.37E-06	0.0094988
250.33	106850	1008.6	0.00099143	161930	162040	855.52	1069.5	1627.9	883.6	-2.91E-07	0.00029264	0.11959	0.016514	3.5485	0.28181	460760	490870	2169.1	820.3	981.82	185.4	0.000053548	8.38E-06	0.0095329
250.67	108420	1007.9	0.00099212	162470	162580	857.68	1069.9	1628.8	881.98	-2.90E-07	0.00029135	0.11942	0.016465	3.5974	0.27798	460980	491120	2168.3	821.38	983.27	185.45	0.000053294	8.39E-06	0.009567
251	110000	1007.2	0.00099281	163010	163120	859.84	1070.3	1629.7	880.35	-2.89E-07	0.00029007	0.11926	0.016416	3.6469	0.2742	461200	491360	2167.6	822.46	984.73	185.5	0.000053041	8.40E-06	0.0096011
251.33	111610	1006.5	0.0009935	163560	163670	862	1070.7	1630.6	878.73	-2.88E-07	0.0002888	0.1191	0.016366	3.6969	0.27049	461420	491610	2166.8	823.54	986.2	185.54	0.00005279	8.41E-06	0.0096352
251.67	113230	1005.8	0.00099419	164100	164210	864.16	1071.2	1631.5	877.1	-2.87E-07	0.00028754	0.11893	0.016317	3.7475	0.26684	461640	491850	2166	824.63	987.67	185.59	0.000052541	8.43E-06	0.0096693
252	114870	1005.1	0.00099488	164640	164760	866.32	1071.6	1632.4	875.48	-2.86E-07	0.00028628	0.11877	0.016268	3.7986	0.26325	461860	492100	2165.3	825.71	989.14	185.64	0.000052293	8.44E-06	0.0097035
252.33	116530	1004.4	0.00099558	165190	165300	868.47	1072	1633.3	873.85	-2.86E-07	0.00028503	0.11861	0.016218	3.8503	0.25972	462080	492340	2164.5	826.8	990.62	185.69	0.000052047	8.45E-06	0.0097377
252.67	118210	1003.7	0.00099627	165730	165850	870.62	1072.4	1634.2	872.22	-2.85E-07	0.00028379	0.11845	0.016169	3.9025	0.25625	462290	492590	2163.8	827.89	992.11	185.73	0.000051803	8.46E-06	0.0097719
253	119910	1003	0.00099697	166270	166390	872.78	1072.8	1635.1	870.6	-2.84E-07	0.00028255	0.11828	0.01612	3.9552	0.25283	462510	492830	2163	828.98	993.6	185.78	0.000051561	8.47E-06	0.0098061
253.33	121630	1002.3	0.00099767	166820	166940	874.93	1073.2	1636	868.97	-2.83E-07	0.00028132	0.11812	0.016071	4.0085	0.24947	462730	493070	2162.3	830.07	995.09	185.82	0.00005132	8.48E-06	0.0098403
253.67	123360	1001.6	0.00099837	167360	167480	877.07	1073.6	1636.9	867.35	-2.82E-07	0.0002801	0.11798	0.016022	4.0624	0.24616	462950	493320	2161.6	831.16	996.59	185.87	0.000051081	8.49E-06	0.0098746
254	125120	1000.9	0.00099908	167910	168030	879.22	1074	1637.8	865.72	-2.81E-07	0.00027889	0.11782	0.015973	4.1169	0.2429	463170	493560	2160.8	832.26	998.09	185.91	0.000050844	8.50E-06	0.0099089
254.33	126900	1000.2	0.00099978	168450	168580	881.37	1074.4	1638.7	864.1	-2.80E-07	0.00027768	0.11766	0.015924	4.1719	0.2397	463390	493800	2160.1	833.36	999.6	185.96	0.000050608	8.52E-06	0.0099432
254.67	128690	999.51	0.0010005	169000	169130	883.51	1074.9	1639.7	862.47	-2.79E-07	0.00027648	0.11751	0.015874	4.2275	0.23654	463600	494040	2159.4	834.45	1001.1	186	0.000050374	8.53E-06	0.0099775
255	130510	998.8	0.0010012	169540	169670	885.65	1075.3	1640.6	860.84	-2.78E-07	0.00027529	0.11735	0.015825	4.2837	0.23344	463820	494290	2158.6	835.55	1002.6	186.04	0.000050141	8.54E-06	0.010012
255.33	132340	998.1	0.0010019	170090	170220	887.79	1075.7	1641.5	859.22	-2.77E-07	0.0002741	0.11719	0.015776	4.3405	0.23039	464040	494530	2157.9	836.65	1004.2	186.08	0.00004991	8.55E-06	0.010046
255.67	134200	997.39	0.0010026	170630	170770	889.93	1076.1	1642.5	857.59	-2.76E-07	0.00027292	0.11703	0.015727	4.3979	0.22738	464260	494770	2157.2	837.76	1005.7	186.12	0.000049681	8.56E-06	0.010081
256	136070	996.68	0.0010033	171180	171320	892.06	1076.5	1643.4	855.96	-2.75E-07	0.00027175	0.11688	0.015679	4.4558	0.22442	464480	495010	2156.5	838.86	1007.2	186.16	0.000049453	8.57E-06	0.010115
256.33	137970	995.97	0.001004	171730	171870	894.2	1077	1644.4	854.34	-2.74E-07	0.00027058	0.11672	0.01563	4.5144	0.22151	464690	495260	2155.8	839.97	1008.8	186.2	0.000049227	8.58E-06	0.01015
256.67	139890	995.26	0.0010048	172270	172420	896.33	1077.4	1645.3	852.71	-2.73E-07	0.00026942	0.11656	0.015581	4.5736	0.21865	464910	495500	2155.1	841.08	1010.3	186.24	0.000049002	8.59E-06	0.010184
257	141830	994.55	0.0010055	172820	172960	898.46	1077.8	1646.3	851.08	-2.72E-07	0.00026827	0.11641	0.015532	4.6334	0.21583	465130	495740	2154.4	842.18	1011.8	186.28	0.000048779	8.61E-06	0.010219
257.33	143790	993.83	0.0010062	173370	173510	900.6	1078.2	1647.2	849.46	-2.71E-07	0.00026712	0.11625	0.015483	4.6938	0.21305	465350	495980	2153.7	843.3	1013.4	186.32	0.000048558	8.62E-06	0.010253
257.67	145770	993.12	0.0010069	173920	174060	902.72	1078.7	1648.2	847.83	-2.70E-07	0.00026598	0.11609	0.015434	4.7548	0.21031	465560	496220	2153	844.41	1015	186.36	0.000048337	8.63E-06	0.010288
258	147770	992.41	0.0010077	174470	174620	904.85	1079.1	1649.2	846.2	-2.69E-07	0.00026484	0.11593	0.015385	4.8164	0.20762	465780	496460	2152.3	845.52	1016.5	186.39	0.000048119	8.64E-06	0.010322
258.33	149790	991.69	0.0010084	175010	175170	906.98	1079.5	1650.1	844.58	-2.68E-07	0.00026371	0.11578	0.015337	4.8787	0.20497	466000	496700	2151.6	846.64	1018.1	186.43	0.000047902	8.65E-06	0.010357
258.67	151840	990.98	0.0010091	175560	175720	909.1	1080	1651.1	842.95	-2.67E-07	0.00026259	0.11562	0.015288	4.9416	0.20236	466210	496940	2150.9	847.75	1019.7	186.46	0.000047686	8.66E-06	0.010391
259	153900	990.26	0.0010098	176110	176270	911.22	1080.4	1652.1	841.32	-2.66E-07	0.00026148	0.11546	0.015239	5.0051	0.19979	466430	497180	2150.3	848.87	1021.2	186.5	0.000047472	8.67E-06	0.010426
259.33	155990	989.55	0.0010106	176660	176820	913.34	1080.8	1653.1	839.69	-2.64E-07	0.00026037	0.11531	0.015191	5.0693	0.19727	466650	497420	2149.6	849.99	1022.8	186.53	0.000047259	8.69E-06	0.010461
259.67	158100	988.83	0.0010113	177210	177370	915.46	1081.3	1654	838.06	-2.63E-07	0.00025926	0.11515	0.015142	5.1341	0.19477	466870	497660	2148.9	851.12	1024.4	186.57	0.000047048	8.70E-06	0.010495
260	160240	988.11	0.001012	177760	177920	917.58	1081.7	1655	836.44	-2.62E-07	0.00025817	0.11499	0.015093	5.1996	0.19232	467080	497900	2148.2	852.24	1026	186.6	0.000046838	8.71E-06	0.01053
260.33	162390	987.39	0.0010128	178310	178480	919.7	1082.1	1656	834.81	-2.61E-07	0.00025707	0.11484	0.015045	5.2658	0.18991	467300	498140	2147.6	853.36	1027.6	186.63	0.00004663	8.72E-06	0.010565
260.67	164570	986.67	0.0010135	178860	179030	921.81	1082.6	1657	833.18	-2.60E-07	0.00025599	0.11468	0.014996	5.3326	0.18753	467510	498380	2146.9	854.49	1029.2	186.66	0.000046423	8.73E-06	0.0106
261	166770	985.95	0.0010143	179410	179580	923.93	1083	1658	831.55	-2.59E-07	0.00025491	0.11453	0.014948	5.4	0.18518	467730	498610	2146.3	855.62	1030.8	186.69	0.000046218	8.74E-06	0.010635
261.33	168990	985.23	0.001015	179970	180140	926.04	1083.4	1659	829.92	-2.58E-07	0.00025384	0.11437	0.014899	5.4682	0.18288	467950	498850	2145.6	856.75	1032.4	186.72	0.000046014	8.75E-06	0.010669
261.67	171240	984.51	0.0010157	180520	180690	928.15	1083.9	1660	828.29	-2.57E-07	0.00025277	0.11421	0.014851	5.537	0.1806	468160	499090	2145	857.88	1034.1	186.75	0.000045811	8.76E-06	0.010704
262	173510	983.78	0.0010165	181070	181250	930.26	1084.3	1661	826.66	-2.56E-07	0.00025171	0.11406	0.014802	5.6065	0.17837	468380	499330	2144.3	859.01	1035.7	186.78	0.000045609	8.78E-06	0.010739
262.33	175810	983.06	0.0010172	181620	181800	932.36	1084.8	1662	825.03	-2.55E-07	0.00025065	0.1139	0.014754	5.6767	0.17616	468600	499570	2143.7	860.15	1037.3	186.81	0.000045409	8.79E-06	0.010774
262.67	178120	982.34	0.001018	182180	182360	934.47	1085.2	1663.1	823.4	-2.54E-07	0.0002496	0.11375	0.014705	5.7475	0.17399	468810	499800	2143	861.28	1039	186.84	0.000045211	8.80E-06	0.010809
263	180460	981.61	0.0010187	182730	182910	936.57	1085.7	1664.1	821.77	-2.52E-07	0.00024855	0.11359	0.014657	5.8191	0.17185	469030	500040	2142.4	862.42	1040.6	186.87	0.000045013	8.81E-06	0.010844
263.33	182830	980.88	0.0010195	183280	183470	938.68	1086.1	1665.1	820.14	-2.51E-07	0.00024751	0.11344	0.014609	5.8914	0.16974	469240	500280	2141.7	863.56	1042.3	186.89	0.000044817	8.82E-06	0.010879
263.67	185220	980.16	0.0010202	183840	184020	940.78	1086.6	1666.1	818.51	-2.50E-07	0.00024648	0.11328	0.014561	5.9643	0.16766	469460	500510	2141.1	864.7	1043.9	186.92	0.000044623	8.83E-06	0.010914
264	187630	979.43	0.001021	184390	184580	942.88	1087	1667.2	816.88	-2.49E-07	0.00024545	0.11313	0.014512	6.038	0.16562	469670	500750	2140.5	865.84	1045.6	186.94	0.000044429	8.84E-06	0.010949
264.33	190070	978.7	0.0010218	184940	185140	944.98	1087.4	1668.2	815.25	-2.48E-07	0.00024443	0.11297	0.014464	6.1124	0.1636	469890	500980	2139.9	866.98	1047.2	186.97	0.000044237	8.86E-06	0.010984
264.67	192530	977.97	0.0010225	185500	185690	947.07	1087.9	1669.3	813.62	-2.47E-07	0.00024341	0.11282	0.014416	6.1875	0.16162	470100	501220	2139.2	868.13	1048.9	186.99	0.000044047	8.87E-06	0.011019
265	195020	977.24	0.0010233	186050	186250	949.17	1088.4	1670.3	811.99	-2.46E-07	0.0002424	0.11266	0.014368	6.2634	0.15966	470320	501450	2138.6	869.27	1050.6	187.01	0.000043857	8.88E-06	0.011055
265.33	197530	976.51	0.0010241	186610	186810	951.27	1088.8	1671.4	810.36	-2.44E-07	0.00024139	0.11251	0.014319	6.34	0.15773	470530	501690	2138	870.42	1052.3	187.04	0.000043669	8.89E-06	0.01109
265.67	200070	975.78	0.0010248	187160	187370	953.36	1089.3	1672.4	808.73	-2.43E-07	0.00024039	0.11236	0.014271	6.4173	0.15583	470750	501920	2137.4	871.57	1054	187.06	0.000043482	8.90E-06	0.011125
266	202630	975.05	0.0010256	187720	187930	955.45	1089.7	1673.5	807.1	-2.42E-07	0.0002394	0.1122	0.014223	6.4954	0.15396	470960	502160	2136.8	872.72	1055.7	187.08	0.000043296	8.91E-06	0.01116
266.33	205220	974.31	0.0010264	188280	188490	957.54	1090.2	1674.5	805.46	-2.41E-07	0.00023841	0.11205	0.014175	6.5742	0.15211	471180	502390	2136.2	873.88	1057.4	187.1	0.000043112	8.92E-06	0.011196
266.67	207830	973.58	0.0010271	188830	189050	959.63	1090.6	1675.6	803.83	-2.40E-07	0.00023742	0.1119	0.014127	6.6537	0.15029	471390	502630	2135.6	875.03	1059.1	187.12	0.000042929	8.94E-06	0.011231
267	210470	972.84	0.0010279	189390	189610	961.72	1091.1	1676.7	802.2	-2.38E-07	0.00023644	0.11174	0.014079	6.7341	0.1485	471610	502860	2135	876.19	1060.8	187.14	0.000042747	8.95E-06	0.011266
267.33	213130	972.11	0.0010287	189950	190170	963.8	1091.5	1677.7	800.57	-2.37E-07	0.00023546	0.11159	0.014031	6.8151	0.14673	471820	503090	2134.4	877.34	1062.5	187.16	0.000042566	8.96E-06	0.011302
267.67	215820	971.37	0.0010295	190500	190730	965.89	1092	1678.8	798.93	-2.36E-07	0.00023449	0.11144	0.013983	6.897	0.14499	472030	503330	2133.8	878.5	1064.2	187.17	0.000042387	8.97E-06	0.011337
268	218540	970.63	0.0010303	191060	191290	967.97	1092.5	1679.9	797.3	-2.35E-07	0.00023353	0.11128	0.013935	6.9796	0.14327	472250	503560	2133.2	879.66	1066	187.19	0.000042208	8.98E-06	0.011373
268.33	221280	969.89	0.001031	191620	191850	970.05	1092.9	1681	795.67	-2.34E-07	0.00023257	0.11113	0.013887	7.063	0.14158	472460	503790	2132.6	880.82	1067.7	187.21	0.000042031	8.99E-06	0.011408
268.67	224050	969.15	0.0010318	192180	192410	972.14	1093.4	1682.1	794.03	-2.32E-07	0.00023161	0.11098	0.01384	7.1472	0.13991	472670	504020	2132	881.99	1069.4	187.22	0.000041855	9.00E-06	0.011444
269	226850	968.41	0.0010326	192740	192970	974.22	1093.8	1683.2	792.4	-2.31E-07	0.00023066	0.11082	0.013792	7.2322	0.13827	472890	504250	2131.4	883.15	1071.2	187.24	0.00004168	9.02E-06	0.011479
269.33	229680	967.67	0.0010334	193300	193530	976.29	1094.3	1684.3	790.76	-2.30E-07	0.00022972	0.11067	0.013744	7.318	0.13665	473100	504490	2130.8	884.32	1073	187.25	0.000041507	9.03E-06	0.011515
269.67	232530	966.93	0.0010342	193860	194100	978.37	1094.8	1685.4	789.13	-2.29E-07	0.00022878	0.11052	0.013696	7.4046	0.13505	473310	504720	2130.2	885.48	1074.7	187.27	0.000041334	9.04E-06	0.01155
270	235410	966.18	0.001035	194420	194660	980.45	1095.2	1686.5	787.5	-2.27E-07	0.00022784	0.11037	0.013648	7.492	0.13348	473530	504950	2129.7	886.65	1076.5	187.28	0.000041163	9.05E-06	0.011586
270.33	238310	965.44	0.0010358	194980	195220	982.52	1095.7	1687.6	785.86	-2.26E-07	0.00022691	0.11022	0.013601	7.5802	0.13192	473740	505180	2129.1	887.82	1078.3	187.29	0.000040993	9.06E-06	0.011622
270.67	241250	964.69	0.0010366	195540	195790	984.59	1096.2	1688.7	784.22	-2.25E-07	0.00022598	0.11006	0.013553	7.6692	0.13039	473950	505410	2128.5	889	1080	187.3	0.000040824	9.07E-06	0.011658
271	244210	963.95	0.0010374	196100	196350	986.67	1096.6	1689.9	782.59	-2.23E-07	0.00022506	0.10991	0.013505	7.7591	0.12888	474160	505640	2127.9	890.17	1081.8	187.31	0.000040656	9.08E-06	0.011693
271.33	247200	963.2	0.0010382	196660	196920	988.74	1097.1	1691	780.95	-2.22E-07	0.00022415	0.10976	0.013458	7.8498	0.12739	474380	505870	2127.4	891.34	1083.6	187.32	0.000040489	9.10E-06	0.011729
271.67	250220	962.45	0.001039	197220	197480	990.81	1097.6	1692.1	779.32	-2.21E-07	0.00022324	0.10961	0.01341	7.9413	0.12592	474590	506100	2126.8	892.52	1085.4	187.33	0.000040323	9.11E-06	0.011765
272	253260	961.7	0.0010398	197780	198050	992.87	1098.1	1693.3	777.68	-2.20E-07	0.00022233	0.10946	0.013363	8.0337	0.12448	474800	506330	2126.3	893.7	1087.2	187.34	0.000040159	9.12E-06	0.011801
272.33	256340	960.95	0.0010406	198350	198610	994.94	1098.5	1694.4	776.04	-2.18E-07	0.00022142	0.10931	0.013315	8.1269	0.12305	475010	506550	2125.7	894.88	1089	187.35	0.000039995	9.13E-06	0.011837
272.67	259440	960.2	0.0010414	198910	199180	997.01	1099	1695.6	774.4	-2.17E-07	0.00022053	0.10916	0.013268	8.2209	0.12164	475220	506780	2125.1	896.06	1090.9	187.36	0.000039833	9.14E-06	0.011873
273	262570	959.45	0.0010423	199470	199740	999.07	1099.5	1696.7	772.77	-2.16E-07	0.00021963	0.109	0.01322	8.3159	0.12025	475440	507010	2124.6	897.24	1092.7	187.36	0.000039671	9.15E-06	0.011909
273.33	265730	958.7	0.0010431	200030	200310	1001.1	1100	1697.9	771.13	-2.14E-07	0.00021874	0.10885	0.013173	8.4117	0.11888	475650	507240	2124	898.42	1094.5	187.37	0.000039511	9.17E-06	0.011945
273.67	268930	957.95	0.0010439	200600	200880	1003.2	1100.4	1699	769.49	-2.13E-07	0.00021786	0.1087	0.013125	8.5083	0.11753	475860	507470	2123.5	899.61	1096.3	187.37	0.000039352	9.18E-06	0.011981
274	272150	957.19	0.0010447	201160	201450	1005.3	1100.9	1700.2	767.85	-2.11E-07	0.00021698	0.10855	0.013078	8.6059	0.1162	476070	507690	2122.9	900.8	1098.2	187.38	0.000039193	9.19E-06	0.012017
274.33	275400	956.43	0.0010455	201730	202010	1007.3	1101.4	1701.4	766.21	-2.10E-07	0.0002161	0.1084	0.013031	8.7043	0.11489	476280	507920	2122.4	901.99	1100	187.38	0.000039036	9.20E-06	0.012054
274.67	278680	955.68	0.0010464	202290	202580	1009.4	1101.9	1702.5	764.57	-2.09E-07	0.00021523	0.10825	0.012983	8.8037	0.11359	476490	508150	2121.9	903.17	1101.9	187.39	0.00003888	9.21E-06	0.01209
275	281990	954.92	0.0010472	202860	203150	1011.4	1102.3	1703.7	762.93	-2.07E-07	0.00021436	0.1081	0.012936	8.9039	0.11231	476700	508370	2121.3	904.37	1103.8	187.39	0.000038725	9.22E-06	0.012126
275.33	285330	954.16	0.001048	203420	203720	1013.5	1102.8	1704.9	761.29	-2.06E-07	0.0002135	0.10795	0.012889	9.005	0.11105	476910	508600	2120.8	905.56	1105.6	187.39	0.000038571	9.24E-06	0.012162
275.67	288700	953.4	0.0010489	203990	204290	1015.5	1103.3	1706.1	759.65	-2.05E-07	0.00021264	0.1078	0.012842	9.107	0.10981	477120	508820	2120.3	906.75	1107.5	187.39	0.000038418	9.25E-06	0.012199
276	292100	952.64	0.0010497	204550	204860	1017.6	1103.8	1707.3	758.01	-2.03E-07	0.00021179	0.10765	0.012795	9.21	0.10858	477330	509050	2119.7	907.95	1109.4	187.39	0.000038266	9.26E-06	0.012235
276.33	295530	951.88	0.0010506	205120	205430	1019.7	1104.3	1708.5	756.37	-2.02E-07	0.00021094	0.1075	0.012747	9.3139	0.10737	477540	509270	2119.2	909.15	1111.3	187.39	0.000038115	9.27E-06	0.012272
276.67	298990	951.12	0.0010514	205690	206000	1021.7	1104.8	1709.7	754.73	-2.00E-07	0.00021009	0.10735	0.0127	9.4187	0.10617	477750	509500	2118.7	910.34	1113.2	187.39	0.000037965	9.28E-06	0.012308
277	302490	950.35	0.0010522	206260	206570	1023.8	1105.2	1710.9	753.09	-1.99E-07	0.00020925	0.1072	0.012653	9.5244	0.10499	477960	509720	2118.1	911.54	1115.1	187.39	0.000037816	9.29E-06	0.012345
277.33	306010	949.59	0.0010531	206820	207150	1025.8	1105.7	1712.1	751.45	-1.97E-07	0.00020841	0.10705	0.012606	9.6311	0.10383	478170	509940	2117.6	912.74	1117	187.38	0.000037668	9.31E-06	0.012381
277.67	309570	948.82	0.0010539	207390	207720	1027.8	1106.2	1713.3	749.8	-1.96E-07	0.00020758	0.10691	0.012559	9.7387	0.10268	478380	510170	2117.1	913.95	1119	187.38	0.000037521	9.32E-06	0.012418
278	313160	948.06	0.0010548	207960	208290	1029.9	1106.7	1714.6	748.16	-1.94E-07	0.00020675	0.10676	0.012512	9.8473	0.10155	478590	510390	2116.6	915.15	1120.9	187.37	0.000037374	9.33E-06	0.012455
278.33	316780	947.29	0.0010556	208530	208860	1031.9	1107.2	1715.8	746.52	-1.93E-07	0.00020592	0.10661	0.012465	9.9569	0.10043	478800	510610	2116.1	916.36	1122.8	187.37	0.000037229	9.34E-06	0.012491
278.67	320430	946.52	0.0010565	209100	209440	1034	1107.7	1717	744.87	-1.92E-07	0.0002051	0.10646	0.012418	10.067	0.099331	479010	510830	2115.6	917.56	1124.8	187.36	0.000037085	9.35E-06	0.012528
279	324120	945.75	0.0010574	209670	210010	1036	1108.2	1718.3	743.23	-1.90E-07	0.00020428	0.10631	0.012371	10.179	0.098243	479210	511060	2115	918.77	1126.7	187.36	0.000036942	9.36E-06	0.012565
279.33	327830	944.98	0.0010582	210240	210580	1038.1	1108.7	1719.5	741.58	-1.89E-07	0.00020347	0.10616	0.012324	10.291	0.097169	479420	511280	2114.5	919.98	1128.7	187.35	0.000036799	9.38E-06	0.012602
279.67	331580	944.21	0.0010591	210810	211160	1040.1	1109.2	1720.8	739.94	-1.87E-07	0.00020266	0.10601	0.012278	10.405	0.09611	479630	511500	2114	921.19	1130.6	187.34	0.000036658	9.39E-06	0.012639
280	335370	943.43	0.00106	211380	211730	1042.2	1109.7	1722	738.29	-1.85E-07	0.00020185	0.10587	0.012231	10.519	0.095064	479840	511720	2113.5	922.41	1132.6	187.33	0.000036517	9.40E-06	0.012676
280.33	339180	942.66	0.0010608	211950	212310	1044.2	1110.1	1723.3	736.65	-1.84E-07	0.00020105	0.10572	0.012184	10.635	0.094032	480050	511940	2113	923.62	1134.6	187.32	0.000036378	9.41E-06	0.012713
280.67	343030	941.88	0.0010617	212520	212890	1046.2	1110.6	1724.6	735	-1.82E-07	0.00020025	0.10557	0.012137	10.751	0.093013	480250	512160	2112.5	924.84	1136.6	187.31	0.000036239	9.42E-06	0.01275
281	346910	941.11	0.0010626	213090	213460	1048.3	1111.1	1725.8	733.35	-1.81E-07	0.00019946	0.10542	0.012091	10.869	0.092008	480460	512380	2112	926.05	1138.6	187.3	0.000036101	9.43E-06	0.012787
281.33	350830	940.33	0.0010635	213670	214040	1050.3	1111.6	1727.1	731.71	-1.79E-07	0.00019867	0.10527	0.012044	10.987	0.091015	480670	512600	2111.5	927.27	1140.6	187.29	0.000035964	9.45E-06	0.012824
281.67	354780	939.55	0.0010643	214240	214620	1052.3	1112.1	1728.4	730.06	-1.78E-07	0.00019788	0.10513	0.011997	11.107	0.090036	480870	512820	2111	928.49	1142.6	187.28	0.000035828	9.46E-06	0.012862
282	358760	938.77	0.0010652	214810	215190	1054.4	1112.6	1729.7	728.41	-1.76E-07	0.0001971	0.10498	0.011951	11.227	0.089069	481080	513030	2110.6	929.71	1144.6	187.26	0.000035693	9.47E-06	0.012899
282.33	362780	937.99	0.0010661	215380	215770	1056.4	1113.1	1731	726.76	-1.75E-07	0.00019632	0.10483	0.011904	11.349	0.088115	481290	513250	2110.1	930.94	1146.7	187.25	0.000035559	9.48E-06	0.012936
282.67	366830	937.2	0.001067	215960	216350	1058.4	1113.6	1732.3	725.11	-1.73E-07	0.00019554	0.10469	0.011858	11.472	0.087172	481490	513470	2109.6	932.16	1148.7	187.23	0.000035426	9.49E-06	0.012974
283	370920	936.42	0.0010679	216530	216930	1060.5	1114.1	1733.6	723.46	-1.71E-07	0.00019477	0.10454	0.011811	11.595	0.086242	481700	513690	2109.1	933.39	1150.7	187.22	0.000035293	9.51E-06	0.013011
283.33	375040	935.64	0.0010688	217110	217510	1062.5	1114.6	1734.9	721.81	-1.70E-07	0.000194	0.10439	0.011765	11.72	0.085324	481900	513900	2108.6	934.61	1152.8	187.2	0.000035162	9.52E-06	0.013049
283.67	379190	934.85	0.0010697	217680	218090	1064.5	1115.1	1736.2	720.16	-1.68E-07	0.00019324	0.10424	0.011718	11.846	0.084417	482110	514120	2108.1	935.84	1154.9	187.18	0.000035031	9.53E-06	0.013086
284	383390	934.06	0.0010706	218260	218670	1066.6	1115.7	1737.5	718.51	-1.66E-07	0.00019248	0.1041	0.011672	11.973	0.083522	482310	514340	2107.6	937.07	1156.9	187.17	0.000034901	9.54E-06	0.013124
284.33	387610	933.28	0.0010715	218830	219250	1068.6	1116.2	1738.9	716.86	-1.65E-07	0.00019172	0.10395	0.011625	12.101	0.082638	482520	514550	2107.2	938.3	1159	187.15	0.000034772	9.55E-06	0.013162
284.67	391870	932.49	0.0010724	219410	219830	1070.6	1116.7	1740.2	715.21	-1.63E-07	0.00019097	0.10381	0.011579	12.23	0.081766	482720	514770	2106.7	939.54	1161.1	187.13	0.000034644	9.57E-06	0.0132
285	396170	931.7	0.0010733	219990	220410	1072.6	1117.2	1741.6	713.55	-1.61E-07	0.00019021	0.10366	0.011533	12.36	0.080904	482930	514980	2106.2	940.77	1163.2	187.11	0.000034516	9.58E-06	0.013237
285.33	400510	930.9	0.0010742	220560	220990	1074.7	1117.7	1742.9	711.9	-1.60E-07	0.00018947	0.10351	0.011487	12.492	0.080054	483130	515200	2105.7	942.01	1165.3	187.09	0.00003439	9.59E-06	0.013275
285.67	404870	930.11	0.0010751	221140	221580	1076.7	1118.2	1744.3	710.25	-1.58E-07	0.00018872	0.10337	0.01144	12.624	0.079214	483340	515410	2105.3	943.24	1167.4	187.06	0.000034264	9.60E-06	0.013313
286	409280	929.32	0.0010761	221720	222160	1078.7	1118.7	1745.6	708.59	-1.56E-07	0.00018798	0.10322	0.011394	12.758	0.078384	483540	515620	2104.8	944.48	1169.5	187.04	0.000034139	9.61E-06	0.013351
286.33	413720	928.52	0.001077	222300	222740	1080.7	1119.2	1747	706.94	-1.55E-07	0.00018725	0.10308	0.011348	12.892	0.077565	483740	515840	2104.3	945.72	1171.7	187.02	0.000034015	9.63E-06	0.013389
286.67	418200	927.73	0.0010779	222870	223330	1082.8	1119.7	1748.4	705.29	-1.53E-07	0.00018651	0.10293	0.011302	13.028	0.076756	483950	516050	2103.9	946.96	1173.8	186.99	0.000033891	9.64E-06	0.013427
287	422720	926.93	0.0010788	223450	223910	1084.8	1120.2	1749.8	703.63	-1.51E-07	0.00018578	0.10278	0.011256	13.165	0.075957	484150	516260	2103.4	948.21	1176	186.97	0.000033769	9.65E-06	0.013466
287.33	427270	926.13	0.0010798	224030	224490	1086.8	1120.7	1751.1	701.97	-1.49E-07	0.00018506	0.10264	0.01121	13.303	0.075169	484350	516470	2103	949.45	1178.1	186.94	0.000033647	9.66E-06	0.013504
287.67	431860	925.33	0.0010807	224610	225080	1088.8	1121.3	1752.5	700.32	-1.48E-07	0.00018433	0.10249	0.011164	13.443	0.074389	484560	516680	2102.5	950.7	1180.3	186.92	0.000033526	9.67E-06	0.013542
288	436490	924.53	0.0010816	225190	225660	1090.8	1121.8	1753.9	698.66	-1.46E-07	0.00018361	0.10235	0.011118	13.583	0.07362	484760	516890	2102	951.94	1182.5	186.89	0.000033406	9.69E-06	0.013581
288.33	441160	923.72	0.0010826	225770	226250	1092.8	1122.3	1755.4	697	-1.44E-07	0.00018289	0.1022	0.011072	13.725	0.07286	484960	517100	2101.6	953.19	1184.6	186.86	0.000033286	9.70E-06	0.013619
288.67	445860	922.92	0.0010835	226350	226840	1094.9	1122.8	1756.8	695.34	-1.42E-07	0.00018218	0.10206	0.011026	13.868	0.072109	485160	517310	2101.1	954.44	1186.8	186.83	0.000033168	9.71E-06	0.013658
289	450600	922.11	0.0010845	226940	227420	1096.9	1123.3	1758.2	693.69	-1.40E-07	0.00018147	0.10191	0.01098	14.012	0.071368	485370	517520	2100.7	955.69	1189	186.8	0.00003305	9.72E-06	0.013696
289.33	455380	921.31	0.0010854	227520	228010	1098.9	1123.9	1759.6	692.03	-1.38E-07	0.00018076	0.10177	0.010934	14.157	0.070635	485570	517730	2100.2	956.94	1191.2	186.77	0.000032933	9.73E-06	0.013735
289.67	460200	920.5	0.0010864	228100	228600	1100.9	1124.4	1761.1	690.37	-1.37E-07	0.00018006	0.10162	0.010888	14.304	0.069912	485770	517940	2099.8	958.2	1193.5	186.74	0.000032816	9.75E-06	0.013774
290	465060	919.69	0.0010873	228680	229190	1102.9	1124.9	1762.5	688.71	-1.35E-07	0.00017936	0.10148	0.010842	14.451	0.069197	485970	518150	2099.3	959.45	1195.7	186.7	0.000032701	9.76E-06	0.013813
290.33	469950	918.88	0.0010883	229270	229780	1104.9	1125.4	1763.9	687.05	-1.33E-07	0.00017866	0.10133	0.010797	14.6	0.068491	486170	518360	2098.9	960.71	1197.9	186.67	0.000032586	9.77E-06	0.013851
290.67	474890	918.07	0.0010892	229850	230370	1106.9	1125.9	1765.4	685.38	-1.31E-07	0.00017797	0.10119	0.010751	14.751	0.067794	486370	518560	2098.4	961.97	1200.2	186.64	0.000032472	9.78E-06	0.01389
291	479860	917.25	0.0010902	230430	230960	1108.9	1126.5	1766.9	683.72	-1.29E-07	0.00017727	0.10105	0.010705	14.902	0.067105	486570	518770	2098	963.23	1202.5	186.6	0.000032358	9.80E-06	0.013929
291.33	484880	916.44	0.0010912	231020	231550	1111	1127	1768.3	682.06	-1.27E-07	0.00017658	0.1009	0.01066	15.055	0.066424	486770	518980	2097.6	964.49	1204.7	186.57	0.000032246	9.81E-06	0.013969
291.67	489930	915.62	0.0010922	231600	232140	1113	1127.5	1769.8	680.4	-1.25E-07	0.0001759	0.10076	0.010614	15.209	0.065751	486970	519180	2097.1	965.75	1207	186.53	0.000032134	9.82E-06	0.014008
292	495020	914.8	0.0010931	232190	232730	1115	1128	1771.3	678.73	-1.23E-07	0.00017522	0.10061	0.010568	15.364	0.065087	487170	519390	2096.7	967.02	1209.3	186.49	0.000032023	9.83E-06	0.014047
292.33	500160	913.99	0.0010941	232770	233320	1117	1128.6	1772.8	677.07	-1.21E-07	0.00017454	0.10047	0.010523	15.521	0.064431	487370	519590	2096.2	968.28	1211.6	186.45	0.000031912	9.84E-06	0.014086
292.67	505330	913.17	0.0010951	233360	233910	1119	1129.1	1774.3	675.4	-1.19E-07	0.00017386	0.10033	0.010477	15.678	0.063782	487570	519800	2095.8	969.55	1213.9	186.42	0.000031802	9.86E-06	0.014126
293	510550	912.34	0.0010961	233950	234510	1121	1129.6	1775.8	673.74	-1.17E-07	0.00017319	0.10018	0.010432	15.838	0.063141	487770	520000	2095.4	970.82	1216.2	186.38	0.000031693	9.87E-06	0.014165
293.33	515800	911.52	0.0010971	234530	235100	1123	1130.2	1777.3	672.07	-1.15E-07	0.00017252	0.10004	0.010386	15.998	0.062508	487960	520200	2094.9	972.08	1218.6	186.33	0.000031585	9.88E-06	0.014205
293.67	521100	910.7	0.0010981	235120	235690	1125	1130.7	1778.8	670.4	-1.13E-07	0.00017185	0.099895	0.010341	16.16	0.061882	488160	520410	2094.5	973.36	1220.9	186.29	0.000031477	9.89E-06	0.014244
294	526430	909.87	0.0010991	235710	236290	1127	1131.2	1780.4	668.74	-1.11E-07	0.00017118	0.099752	0.010296	16.323	0.061264	488360	520610	2094.1	974.63	1223.3	186.25	0.00003137	9.91E-06	0.014284
294.33	531810	909.04	0.0011001	236300	236880	1129	1131.8	1781.9	667.07	-1.09E-07	0.00017052	0.099608	0.01025	16.487	0.060653	488560	520810	2093.7	975.9	1225.7	186.21	0.000031264	9.92E-06	0.014324
294.67	537230	908.21	0.0011011	236890	237480	1131	1132.3	1783.5	665.4	-1.07E-07	0.00016986	0.099465	0.010205	16.653	0.060049	488750	521010	2093.2	977.18	1228	186.16	0.000031158	9.93E-06	0.014364
295	542700	907.38	0.0011021	237470	238070	1133	1132.8	1785	663.73	-1.05E-07	0.00016921	0.099322	0.01016	16.82	0.059452	488950	521210	2092.8	978.45	1230.4	186.12	0.000031053	9.94E-06	0.014404
295.33	548200	906.55	0.0011031	238060	238670	1135	1133.4	1786.6	662.06	-1.03E-07	0.00016855	0.099179	0.010115	16.989	0.058863	489150	521410	2092.4	979.73	1232.8	186.07	0.000030949	9.96E-06	0.014444
295.67	553750	905.72	0.0011041	238650	239270	1137	1133.9	1788.2	660.39	-1.01E-07	0.0001679	0.099036	0.010069	17.159	0.05828	489340	521610	2092	981.01	1235.2	186.02	0.000030845	9.97E-06	0.014484
296	559330	904.88	0.0011051	239250	239860	1139	1134.4	1789.7	658.72	-9.89E-08	0.00016725	0.098894	0.010024	17.33	0.057704	489540	521810	2091.5	982.29	1237.7	185.98	0.000030742	9.98E-06	0.014524
296.33	564970	904.05	0.0011061	239840	240460	1141	1135	1791.3	657.05	-9.68E-08	0.00016661	0.098751	0.0099791	17.503	0.057134	489730	522010	2091.1	983.57	1240.1	185.93	0.00003064	9.99E-06	0.014565
296.67	570640	903.21	0.0011072	240430	241060	1143	1135.5	1792.9	655.37	-9.46E-08	0.00016597	0.098609	0.0099341	17.677	0.056572	489930	522210	2090.7	984.86	1242.5	185.88	0.000030538	1.00E-05	0.014605
297	576360	902.37	0.0011082	241020	241660	1145	1136.1	1794.5	653.7	-9.25E-08	0.00016533	0.098466	0.009889	17.852	0.056016	490120	522410	2090.3	986.14	1245	185.83	0.000030437	1.00E-05	0.014646
297.33	582120	901.53	0.0011092	241610	242260	1147	1136.6	1796.1	652.03	-9.03E-08	0.00016469	0.098324	0.009844	18.029	0.055466	490320	522610	2089.9	987.43	1247.5	185.78	0.000030337	1.00E-05	0.014686
297.67	587920	900.69	0.0011103	242200	242860	1149	1137.2	1797.8	650.35	-8.81E-08	0.00016406	0.098182	0.0097991	18.207	0.054923	490510	522800	2089.4	988.72	1249.9	185.73	0.000030237	1.00E-05	0.014727
298	593770	899.85	0.0011113	242800	243460	1151	1137.7	1799.4	648.68	-8.59E-08	0.00016342	0.098039	0.0097542	18.387	0.054385	490710	523000	2089	990.01	1252.4	185.67	0.000030138	1.01E-05	0.014768
298.33	599660	899	0.0011123	243390	244060	1153	1138.2	1801	647	-8.37E-08	0.0001628	0.097897	0.0097093	18.569	0.053855	490900	523190	2088.6	991.3	1254.9	185.62	0.00003004	1.01E-05	0.014809
298.67	605600	898.15	0.0011134	243990	244660	1155	1138.8	1802.7	645.33	-8.14E-08	0.00016217	0.097755	0.0096644	18.751	0.05333	491090	523390	2088.2	992.59	1257.5	185.56	0.000029942	1.01E-05	0.01485
299	611570	897.31	0.0011144	244580	245260	1156.9	1139.3	1804.4	643.65	-7.92E-08	0.00016155	0.097613	0.0096196	18.935	0.052811	491290	523580	2087.8	993.88	1260	185.51	0.000029845	1.01E-05	0.014891
299.33	617600	896.46	0.0011155	245180	245870	1158.9	1139.9	1806	641.97	-7.69E-08	0.00016092	0.097472	0.0095749	19.121	0.052298	491480	523780	2087.4	995.18	1262.5	185.45	0.000029748	1.01E-05	0.014932
299.67	623670	895.6	0.0011166	245770	246470	1160.9	1140.4	1807.7	640.29	-7.46E-08	0.00016031	0.09733	0.0095301	19.308	0.051791	491670	523970	2087	996.48	1265.1	185.4	0.000029652	1.01E-05	0.014973
300	629780	894.75	0.0011176	246370	247070	1162.9	1141	1809.4	638.61	-7.23E-08	0.00015969	0.097188	0.0094854	19.497	0.05129	491860	524160	2086.6	997.77	1267.7	185.34	0.000029557	1.01E-05	0.015015
300.33	635940	893.9	0.0011187	246960	247680	1164.9	1141.5	1811.1	636.93	-6.99E-08	0.00015908	0.097047	0.0094408	19.687	0.050794	492060	524360	2086.2	999.07	1270.2	185.28	0.000029462	1.01E-05	0.015056
300.67	642150	893.04	0.0011198	247560	248280	1166.9	1142.1	1812.8	635.25	-6.76E-08	0.00015847	0.096905	0.0093961	19.879	0.050304	492250	524550	2085.8	1000.4	1272.8	185.22	0.000029368	1.02E-05	0.015098
301	648400	892.18	0.0011208	248160	248890	1168.9	1142.6	1814.5	633.57	-6.52E-08	0.00015786	0.096764	0.0093516	20.072	0.049819	492440	524740	2085.3	1001.7	1275.5	185.16	0.000029275	1.02E-05	0.015139
301.33	654690	891.32	0.0011219	248760	249490	1170.9	1143.2	1816.2	631.89	-6.28E-08	0.00015725	0.096623	0.009307	20.267	0.04934	492630	524930	2084.9	1003	1278.1	185.1	0.000029182	1.02E-05	0.015181
301.67	661030	890.46	0.001123	249360	250100	1172.9	1143.8	1818	630.2	-6.04E-08	0.00015665	0.096481	0.0092625	20.464	0.048867	492820	525120	2084.5	1004.3	1280.7	185.03	0.00002909	1.02E-05	0.015223
302	667420	889.6	0.0011241	249960	250710	1174.9	1144.3	1819.7	628.52	-5.80E-08	0.00015605	0.09634	0.0092181	20.662	0.048398	493010	525310	2084.1	1005.6	1283.4	184.97	0.000028998	1.02E-05	0.015265
302.33	673860	888.73	0.0011252	250550	251310	1176.8	1144.9	1821.5	626.83	-5.55E-08	0.00015545	0.096199	0.0091736	20.861	0.047935	493200	525500	2083.7	1006.9	1286	184.9	0.000028907	1.02E-05	0.015307
302.67	680340	887.87	0.0011263	251150	251920	1178.8	1145.4	1823.2	625.15	-5.31E-08	0.00015485	0.096058	0.0091292	21.063	0.047477	493390	525690	2083.3	1008.2	1288.7	184.84	0.000028816	1.02E-05	0.015349
303	686870	887	0.0011274	251760	252530	1180.8	1146	1825	623.46	-5.06E-08	0.00015426	0.095918	0.0090849	21.265	0.047025	493580	525880	2082.9	1009.5	1291.4	184.77	0.000028726	1.03E-05	0.015392
303.33	693440	886.13	0.0011285	252360	253140	1182.8	1146.6	1826.8	621.78	-4.81E-08	0.00015367	0.095777	0.0090406	21.47	0.046577	493760	526060	2082.5	1010.8	1294.1	184.71	0.000028637	1.03E-05	0.015434
303.67	700060	885.26	0.0011296	252960	253750	1184.8	1147.1	1828.6	620.09	-4.56E-08	0.00015308	0.095636	0.0089963	21.676	0.046134	493950	526250	2082.1	1012.1	1296.8	184.64	0.000028548	1.03E-05	0.015477
304	706740	884.38	0.0011307	253560	254360	1186.8	1147.7	1830.4	618.4	-4.30E-08	0.00015249	0.095495	0.0089521	21.884	0.045696	494140	526430	2081.8	1013.5	1299.6	184.57	0.00002846	1.03E-05	0.01552
304.33	713450	883.51	0.0011319	254160	254970	1188.7	1148.3	1832.2	616.71	-4.05E-08	0.00015191	0.095355	0.0089079	22.093	0.045263	494330	526620	2081.4	1014.8	1302.3	184.5	0.000028372	1.03E-05	0.015562
304.67	720220	882.63	0.001133	254770	255580	1190.7	1148.8	1834	615.02	-3.79E-08	0.00015133	0.095214	0.0088637	22.304	0.044835	494510	526800	2081	1016.1	1305.1	184.43	0.000028285	1.03E-05	0.015605
305	727030	881.75	0.0011341	255370	256190	1192.7	1149.4	1835.9	613.33	-3.53E-08	0.00015075	0.095074	0.0088196	22.517	0.044411	494700	526990	2080.6	1017.4	1307.9	184.36	0.000028199	1.03E-05	0.015648
305.33	733900	880.87	0.0011352	255970	256810	1194.7	1150	1837.7	611.64	-3.26E-08	0.00015017	0.094934	0.0087756	22.731	0.043992	494890	527170	2080.2	1018.7	1310.7	184.28	0.000028113	1.03E-05	0.015691
305.67	740810	879.99	0.0011364	256580	257420	1196.7	1150.5	1839.6	609.94	-3.00E-08	0.00014959	0.094794	0.0087315	22.948	0.043577	495070	527360	2079.8	1020.1	1313.5	184.21	0.000028027	1.04E-05	0.015735
306	747770	879.1	0.0011375	257180	258030	1198.7	1151.1	1841.5	608.25	-2.73E-08	0.00014902	0.094653	0.0086875	23.166	0.043168	495260	527540	2079.4	1021.4	1316.3	184.13	0.000027943	1.04E-05	0.015778
306.33	754780	878.22	0.0011387	257790	258650	1200.6	1151.7	1843.4	606.56	-2.46E-08	0.00014845	0.094513	0.0086436	23.385	0.042762	495440	527720	2079	1022.7	1319.1	184.06	0.000027858	1.04E-05	0.015822
306.67	761840	877.33	0.0011398	258390	259260	1202.6	1152.2	1845.3	604.86	-2.19E-08	0.00014788	0.094373	0.0085997	23.607	0.042361	495630	527900	2078.6	1024	1322	183.98	0.000027774	1.04E-05	0.015865
307	768950	876.44	0.001141	259000	259880	1204.6	1152.8	1847.2	603.17	-1.92E-08	0.00014732	0.094233	0.0085558	23.83	0.041964	495810	528080	2078.2	1025.4	1324.9	183.9	0.000027691	1.04E-05	0.015909
307.33	776100	875.55	0.0011421	259610	260490	1206.6	1153.4	1849.1	601.47	-1.64E-08	0.00014675	0.094094	0.008512	24.055	0.041572	496000	528260	2077.8	1026.7	1327.8	183.83	0.000027608	1.04E-05	0.015953
307.67	783310	874.66	0.0011433	260220	261110	1208.6	1154	1851	599.77	-1.36E-08	0.00014619	0.093954	0.0084682	24.281	0.041184	496180	528440	2077.4	1028	1330.7	183.75	0.000027526	1.04E-05	0.015997
308	790570	873.76	0.0011445	260820	261730	1210.5	1154.5	1853	598.07	-1.08E-08	0.00014563	0.093814	0.0084244	24.51	0.0408	496360	528620	2077.1	1029.4	1333.6	183.67	0.000027445	1.05E-05	0.016042
308.33	797880	872.86	0.0011457	261430	262350	1212.5	1155.1	1854.9	596.37	-8.01E-09	0.00014507	0.093674	0.0083807	24.74	0.04042	496540	528790	2076.7	1030.7	1336.5	183.58	0.000027363	1.05E-05	0.016086
308.67	805240	871.96	0.0011468	262040	262970	1214.5	1155.7	1856.9	594.67	-5.16E-09	0.00014452	0.093535	0.0083371	24.972	0.040044	496730	528970	2076.3	1032	1339.5	183.5	0.000027283	1.05E-05	0.01613
309	812650	871.06	0.001148	262650	263590	1216.5	1156.3	1858.9	592.97	-2.28E-09	0.00014397	0.093395	0.0082934	25.206	0.039673	496910	529150	2075.9	1033.4	1342.5	183.42	0.000027203	1.05E-05	0.016175
309.33	820110	870.16	0.0011492	263260	264210	1218.5	1156.9	1860.9	591.27	6.18E-10	0.00014341	0.093256	0.0082498	25.442	0.039305	497090	529320	2075.5	1034.7	1345.5	183.33	0.000027123	1.05E-05	0.01622
309.67	827620	869.25	0.0011504	263870	264830	1220.4	1157.5	1862.9	589.57	3.54E-09	0.00014287	0.093117	0.0082063	25.68	0.038941	497270	529500	2075.1	1036.1	1348.5	183.25	0.000027044	1.05E-05	0.016265
310	835190	868.35	0.0011516	264490	265450	1222.4	1158	1864.9	587.86	6.49E-09	0.00014232	0.092977	0.0081628	25.92	0.038581	497450	529670	2074.7	1037.4	1351.5	183.16	0.000026966	1.05E-05	0.01631
310.33	842810	867.44	0.0011528	265100	266070	1224.4	1158.6	1867	586.16	9.47E-09	0.00014177	0.092838	0.0081193	26.161	0.038225	497630	529850	2074.4	1038.7	1354.6	183.08	0.000026888	1.05E-05	0.016355
310.67	850470	866.53	0.001154	265710	266690	1226.4	1159.2	1869	584.45	1.25E-08	0.00014123	0.092699	0.0080759	26.404	0.037872	497810	530020	2074	1040.1	1357.7	182.99	0.00002681	1.06E-05	0.0164
311	858200	865.61	0.0011552	266320	267310	1228.3	1159.8	1871.1	582.75	1.55E-08	0.00014069	0.09256	0.0080326	26.65	0.037524	497990	530190	2073.6	1041.4	1360.7	182.9	0.000026733	1.06E-05	0.016446
311.33	865970	864.7	0.0011565	266940	267940	1230.3	1160.4	1873.1	581.04	1.86E-08	0.00014015	0.092421	0.0079892	26.897	0.037179	498170	530360	2073.2	1042.8	1363.8	182.81	0.000026656	1.06E-05	0.016492
311.67	873800	863.78	0.0011577	267550	268560	1232.3	1161	1875.2	579.33	2.16E-08	0.00013961	0.092282	0.0079459	27.146	0.036837	498340	530530	2072.8	1044.1	1367	182.72	0.00002658	1.06E-05	0.016538
312	881670	862.86	0.0011589	268170	269190	1234.3	1161.6	1877.3	577.62	2.47E-08	0.00013908	0.092143	0.0079027	27.398	0.036499	498520	530700	2072.4	1045.5	1370.1	182.62	0.000026505	1.06E-05	0.016584
312.33	889610	861.94	0.0011602	268780	269810	1236.2	1162.2	1879.5	575.91	2.79E-08	0.00013855	0.092004	0.0078595	27.651	0.036165	498700	530870	2072.1	1046.8	1373.3	182.53	0.00002643	1.06E-05	0.01663
312.67	897590	861.02	0.0011614	269400	270440	1238.2	1162.8	1881.6	574.2	3.10E-08	0.00013802	0.091865	0.0078163	27.906	0.035834	498880	531040	2071.7	1048.2	1376.5	182.44	0.000026355	1.06E-05	0.016676
313	905630	860.09	0.0011627	270010	271070	1240.2	1163.4	1883.8	572.49	3.42E-08	0.00013749	0.091726	0.0077732	28.164	0.035507	499050	531210	2071.3	1049.6	1379.7	182.34	0.000026281	1.07E-05	0.016723
313.33	913730	859.16	0.0011639	270630	271700	1242.2	1164	1885.9	570.78	3.74E-08	0.00013696	0.091588	0.0077301	28.423	0.035183	499230	531380	2070.9	1050.9	1382.9	182.25	0.000026208	1.07E-05	0.016769
313.67	921870	858.23	0.0011652	271250	272320	1244.1	1164.6	1888.1	569.06	4.07E-08	0.00013644	0.091449	0.0076871	28.684	0.034862	499400	531540	2070.5	1052.3	1386.2	182.15	0.000026134	1.07E-05	0.016816
314	930080	857.3	0.0011665	271870	272950	1246.1	1165.2	1890.3	567.35	4.40E-08	0.00013591	0.091311	0.0076441	28.948	0.034545	499580	531710	2070.2	1053.6	1389.4	182.05	0.000026062	1.07E-05	0.016863
314.33	938330	856.37	0.0011677	272490	273580	1248.1	1165.8	1892.5	565.63	4.73E-08	0.00013539	0.091172	0.0076012	29.213	0.034231	499750	531870	2069.8	1055	1392.7	181.95	0.00002599	1.07E-05	0.01691
314.67	946640	855.43	0.001169	273110	274210	1250.1	1166.4	1894.7	563.91	5.06E-08	0.00013487	0.091034	0.0075583	29.481	0.03392	499930	532040	2069.4	1056.4	1396	181.85	0.000025918	1.07E-05	0.016958
315	955010	854.49	0.0011703	273730	274840	1252	1167	1897	562.2	5.40E-08	0.00013435	0.090895	0.0075154	29.751	0.033613	500100	532200	2069	1057.7	1399.4	181.75	0.000025847	1.07E-05	0.017005
315.33	963430	853.55	0.0011716	274350	275480	1254	1167.6	1899.2	560.48	5.74E-08	0.00013384	0.090757	0.0074726	30.023	0.033308	500270	532360	2068.7	1059.1	1402.7	181.65	0.000025776	1.08E-05	0.017053
315.67	971910	852.61	0.0011729	274970	276110	1256	1168.2	1901.5	558.76	6.08E-08	0.00013332	0.090619	0.0074298	30.297	0.033007	500440	532520	2068.3	1060.5	1406.1	181.54	0.000025705	1.08E-05	0.017101
316	980440	851.66	0.0011742	275590	276740	1257.9	1168.8	1903.8	557.04	6.42E-08	0.00013281	0.09048	0.0073871	30.573	0.032709	500620	532680	2067.9	1061.9	1409.5	181.44	0.000025636	1.08E-05	0.017149
316.33	989030	850.71	0.0011755	276210	277380	1259.9	1169.4	1906.1	555.31	6.77E-08	0.0001323	0.090342	0.0073444	30.851	0.032413	500790	532840	2067.5	1063.2	1412.9	181.33	0.000025566	1.08E-05	0.017197
316.67	997680	849.76	0.0011768	276840	278010	1261.9	1170.1	1908.4	553.59	7.13E-08	0.00013179	0.090204	0.0073018	31.132	0.032121	500960	533000	2067.1	1064.6	1416.4	181.23	0.000025497	1.08E-05	0.017246
317	1006400	848.81	0.0011781	277460	278650	1263.9	1170.7	1910.8	551.87	7.48E-08	0.00013129	0.090066	0.0072592	31.415	0.031832	501130	533160	2066.8	1066	1419.9	181.12	0.000025429	1.08E-05	0.017294
317.33	1015100	847.85	0.0011795	278080	279280	1265.8	1171.3	1913.1	550.14	7.84E-08	0.00013078	0.089928	0.0072167	31.7	0.031546	501300	533320	2066.4	1067.4	1423.4	181.01	0.000025361	1.08E-05	0.017343
317.67	1024000	846.89	0.0011808	278710	279920	1267.8	1171.9	1915.5	548.42	8.20E-08	0.00013028	0.08979	0.0071742	31.987	0.031262	501470	533480	2066	1068.7	1426.9	180.9	0.000025293	1.09E-05	0.017392
318	1032800	845.93	0.0011821	279330	280560	1269.8	1172.5	1917.9	546.69	8.57E-08	0.00012978	0.089652	0.0071317	32.277	0.030982	501630	533630	2065.6	1070.1	1430.4	180.79	0.000025226	1.09E-05	0.017441
318.33	1041800	844.97	0.0011835	279960	281190	1271.8	1173.1	1920.3	544.96	8.94E-08	0.00012928	0.089514	0.0070893	32.569	0.030704	501800	533790	2065.2	1071.5	1434	180.68	0.000025159	1.09E-05	0.017491
318.67	1050800	844.01	0.0011848	280590	281830	1273.7	1173.8	1922.8	543.23	9.31E-08	0.00012878	0.089376	0.007047	32.863	0.030429	501970	533940	2064.9	1072.9	1437.6	180.57	0.000025093	1.09E-05	0.017541
319	1059800	843.04	0.0011862	281220	282470	1275.7	1174.4	1925.2	541.5	9.68E-08	0.00012828	0.089238	0.0070046	33.16	0.030157	502140	534100	2064.5	1074.3	1441.2	180.45	0.000025027	1.09E-05	0.01759
319.33	1068900	842.07	0.0011875	281840	283110	1277.7	1175	1927.7	539.77	1.01E-07	0.00012779	0.0891	0.0069624	33.459	0.029887	502300	534250	2064.1	1075.7	1444.9	180.34	0.000024962	1.09E-05	0.017641
319.67	1078100	841.1	0.0011889	282470	283750	1279.6	1175.6	1930.2	538.04	1.04E-07	0.0001273	0.088963	0.0069202	33.76	0.029621	502470	534400	2063.7	1077.1	1448.6	180.22	0.000024897	1.10E-05	0.017691
320	1087300	840.12	0.0011903	283100	284400	1281.6	1176.3	1932.7	536.3	1.08E-07	0.0001268	0.088825	0.006878	34.064	0.029356	502630	534550	2063.4	1078.5	1452.3	180.1	0.000024832	1.10E-05	0.017741
320.33	1096600	839.15	0.0011917	283730	285040	1283.6	1176.9	1935.2	534.57	1.12E-07	0.00012631	0.088687	0.0068359	34.37	0.029095	502800	534700	2063	1079.9	1456	179.98	0.000024768	1.10E-05	0.017792
320.67	1105900	838.17	0.0011931	284360	285680	1285.6	1177.5	1937.8	532.83	1.16E-07	0.00012583	0.08855	0.0067938	34.679	0.028836	502960	534850	2062.6	1081.2	1459.8	179.87	0.000024704	1.10E-05	0.017843
321	1115300	837.18	0.0011945	284990	286330	1287.5	1178.2	1940.3	531.09	1.20E-07	0.00012534	0.088412	0.0067517	34.99	0.028579	503120	535000	2062.2	1082.6	1463.6	179.74	0.000024641	1.10E-05	0.017894
321.33	1124800	836.2	0.0011959	285630	286970	1289.5	1178.8	1942.9	529.36	1.24E-07	0.00012485	0.088274	0.0067098	35.304	0.028326	503290	535150	2061.8	1084	1467.4	179.62	0.000024578	1.10E-05	0.017946
321.67	1134300	835.21	0.0011973	286260	287620	1291.5	1179.4	1945.5	527.62	1.28E-07	0.00012437	0.088137	0.0066678	35.62	0.028074	503450	535290	2061.5	1085.4	1471.2	179.5	0.000024516	1.10E-05	0.017998
322	1143900	834.22	0.0011987	286890	288260	1293.5	1180.1	1948.2	525.88	1.32E-07	0.00012389	0.087999	0.0066259	35.939	0.027825	503610	535440	2061.1	1086.9	1475.1	179.38	0.000024454	1.11E-05	0.01805
322.33	1153500	833.23	0.0012002	287530	288910	1295.4	1180.7	1950.8	524.13	1.36E-07	0.00012341	0.087862	0.0065841	36.26	0.027579	503770	535580	2060.7	1088.3	1479	179.25	0.000024392	1.11E-05	0.018102
322.67	1163200	832.23	0.0012016	288160	289560	1297.4	1181.4	1953.5	522.39	1.41E-07	0.00012293	0.087725	0.0065423	36.584	0.027335	503930	535730	2060.3	1089.7	1482.9	179.13	0.000024331	1.11E-05	0.018154
323	1173000	831.23	0.001203	288800	290210	1299.4	1182	1956.2	520.65	1.45E-07	0.00012245	0.087587	0.0065005	36.91	0.027093	504090	535870	2059.9	1091.1	1486.9	179	0.00002427	1.11E-05	0.018207
323.33	1182800	830.23	0.0012045	289430	290860	1301.4	1182.7	1958.9	518.9	1.49E-07	0.00012198	0.08745	0.0064588	37.239	0.026854	504250	536010	2059.6	1092.5	1490.9	178.87	0.00002421	1.11E-05	0.01826
323.67	1192700	829.23	0.0012059	290070	291510	1303.3	1183.3	1961.6	517.16	1.53E-07	0.00012151	0.087312	0.0064172	37.57	0.026617	504410	536150	2059.2	1093.9	1495	178.74	0.00002415	1.11E-05	0.018313
324	1202600	828.22	0.0012074	290710	292160	1305.3	1184	1964.4	515.41	1.58E-07	0.00012103	0.087175	0.0063756	37.905	0.026382	504560	536290	2058.8	1095.3	1499	178.61	0.00002409	1.12E-05	0.018367
324.33	1212600	827.21	0.0012089	291350	292810	1307.3	1184.6	1967.2	513.66	1.62E-07	0.00012056	0.087038	0.006334	38.242	0.026149	504720	536430	2058.4	1096.7	1503.1	178.48	0.000024031	1.12E-05	0.01842
324.67	1222700	826.2	0.0012104	291980	293460	1309.3	1185.3	1970	511.91	1.67E-07	0.00012009	0.086901	0.0062925	38.581	0.025919	504880	536570	2058	1098.2	1507.3	178.35	0.000023972	1.12E-05	0.018474
325	1232800	825.18	0.0012119	292620	294120	1311.2	1185.9	1972.9	510.16	1.71E-07	0.00011962	0.086763	0.0062511	38.924	0.025691	505030	536700	2057.6	1099.6	1511.4	178.21	0.000023914	1.12E-05	0.018529
325.33	1243000	824.16	0.0012134	293260	294770	1313.2	1186.6	1975.7	508.41	1.76E-07	0.00011916	0.086626	0.0062097	39.269	0.025465	505190	536840	2057.3	1101	1515.6	178.08	0.000023856	1.12E-05	0.018583
325.67	1253300	823.14	0.0012149	293910	295430	1315.2	1187.2	1978.6	506.65	1.80E-07	0.00011869	0.086489	0.0061683	39.617	0.025242	505340	536980	2056.9	1102.4	1519.9	177.94	0.000023798	1.12E-05	0.018638
326	1263600	822.11	0.0012164	294550	296080	1317.2	1187.9	1981.5	504.9	1.85E-07	0.00011823	0.086352	0.006127	39.968	0.02502	505490	537110	2056.5	1103.9	1524.1	177.8	0.000023741	1.12E-05	0.018693
326.33	1274000	821.09	0.0012179	295190	296740	1319.1	1188.6	1984.5	503.14	1.90E-07	0.00011777	0.086215	0.0060858	40.321	0.024801	505650	537240	2056.1	1105.3	1528.4	177.66	0.000023684	1.13E-05	0.018748
326.67	1284400	820.06	0.0012194	295830	297400	1321.1	1189.2	1987.4	501.38	1.94E-07	0.00011731	0.086078	0.0060446	40.678	0.024583	505800	537370	2055.7	1106.7	1532.8	177.52	0.000023627	1.13E-05	0.018804
327	1295000	819.02	0.001221	296480	298060	1323.1	1189.9	1990.4	499.62	1.99E-07	0.00011685	0.08594	0.0060034	41.037	0.024368	505950	537510	2055.3	1108.2	1537.2	177.38	0.000023571	1.13E-05	0.01886
327.33	1305500	817.99	0.0012225	297120	298720	1325.1	1190.6	1993.4	497.86	2.04E-07	0.00011639	0.085803	0.0059623	41.4	0.024155	506100	537630	2054.9	1109.6	1541.6	177.24	0.000023516	1.13E-05	0.018917
327.67	1316200	816.95	0.0012241	297770	299380	1327	1191.2	1996.5	496.1	2.09E-07	0.00011593	0.085666	0.0059213	41.765	0.023944	506250	537760	2054.6	1111	1546.1	177.1	0.00002346	1.13E-05	0.018973
328	1326900	815.9	0.0012256	298410	300040	1329	1191.9	1999.6	494.34	2.14E-07	0.00011548	0.085529	0.0058803	42.133	0.023734	506400	537890	2054.2	1112.5	1550.6	176.95	0.000023405	1.13E-05	0.01903
328.33	1337700	814.86	0.0012272	299060	300700	1331	1192.6	2002.7	492.57	2.19E-07	0.00011502	0.085392	0.0058393	42.504	0.023527	506550	538020	2053.8	1113.9	1555.1	176.81	0.000023351	1.14E-05	0.019087
328.67	1348500	813.81	0.0012288	299710	301370	1333	1193.3	2005.8	490.81	2.24E-07	0.00011457	0.085255	0.0057984	42.879	0.023322	506690	538140	2053.4	1115.4	1559.7	176.66	0.000023297	1.14E-05	0.019145
329	1359400	812.76	0.0012304	300360	302030	1334.9	1193.9	2009	489.04	2.29E-07	0.00011412	0.085118	0.0057576	43.256	0.023118	506840	538270	2053	1116.8	1564.3	176.51	0.000023243	1.14E-05	0.019203
329.33	1370400	811.7	0.001232	301010	302690	1336.9	1194.6	2012.1	487.27	2.34E-07	0.00011367	0.084981	0.0057168	43.636	0.022917	506990	538390	2052.6	1118.3	1569	176.36	0.000023189	1.14E-05	0.019261
329.67	1381400	810.64	0.0012336	301660	303360	1338.9	1195.3	2015.4	485.5	2.39E-07	0.00011322	0.084844	0.005676	44.02	0.022717	507130	538510	2052.2	1119.7	1573.7	176.21	0.000023136	1.14E-05	0.01932
330	1392500	809.58	0.0012352	302310	304030	1340.9	1196	2018.6	483.73	2.44E-07	0.00011277	0.084707	0.0056354	44.407	0.022519	507280	538630	2051.8	1121.2	1578.5	176.06	0.000023083	1.14E-05	0.019379
330.33	1403700	808.51	0.0012368	302960	304700	1342.9	1196.7	2021.9	481.96	2.50E-07	0.00011233	0.08457	0.0055947	44.796	0.022323	507420	538750	2051.4	1122.6	1583.3	175.91	0.000023031	1.15E-05	0.019438
330.67	1414900	807.44	0.0012385	303610	305360	1344.9	1197.4	2025.2	480.19	2.55E-07	0.00011188	0.084433	0.0055541	45.19	0.022129	507560	538870	2051	1124.1	1588.1	175.75	0.000022979	1.15E-05	0.019498
331	1426200	806.37	0.0012401	304270	306030	1346.8	1198.1	2028.6	478.41	2.60E-07	0.00011144	0.084296	0.0055136	45.586	0.021937	507700	538990	2050.6	1125.5	1593	175.6	0.000022927	1.15E-05	0.019558
331.33	1437600	805.3	0.0012418	304920	306700	1348.8	1198.8	2031.9	476.63	2.66E-07	0.000111	0.08416	0.0054731	45.985	0.021746	507850	539110	2050.2	1127	1597.9	175.44	0.000022876	1.15E-05	0.019618
331.67	1449000	804.22	0.0012434	305570	307380	1350.8	1199.5	2035.4	474.86	2.72E-07	0.00011055	0.084023	0.0054327	46.388	0.021557	507990	539220	2049.8	1128.5	1602.9	175.28	0.000022825	1.15E-05	0.019679
332	1460500	803.13	0.0012451	306230	308050	1352.8	1200.2	2038.8	473.08	2.77E-07	0.00011011	0.083886	0.0053924	46.795	0.02137	508130	539340	2049.4	1129.9	1608	175.13	0.000022775	1.16E-05	0.01974
332.33	1472100	802.05	0.0012468	306890	308720	1354.8	1200.9	2042.3	471.3	2.83E-07	0.00010968	0.083749	0.0053521	47.204	0.021185	508260	539450	2049	1131.4	1613	174.96	0.000022724	1.16E-05	0.019801
332.67	1483700	800.96	0.0012485	307540	309400	1356.8	1201.6	2045.8	469.51	2.89E-07	0.00010924	0.083612	0.0053118	47.617	0.021001	508400	539560	2048.6	1132.9	1618.2	174.8	0.000022674	1.16E-05	0.019863
333	1495400	799.86	0.0012502	308200	310070	1358.7	1202.3	2049.4	467.73	2.94E-07	0.0001088	0.083475	0.0052716	48.034	0.020819	508540	539670	2048.2	1134.4	1623.4	174.64	0.000022625	1.16E-05	0.019926
333.33	1507200	798.77	0.0012519	308860	310750	1360.7	1203	2053	465.94	3.00E-07	0.00010837	0.083338	0.0052315	48.453	0.020638	508670	539780	2047.8	1135.8	1628.6	174.48	0.000022576	1.16E-05	0.019988
333.67	1519100	797.67	0.0012537	309520	311430	1362.7	1203.7	2056.6	464.16	3.06E-07	0.00010793	0.083201	0.0051914	48.877	0.02046	508810	539890	2047.4	1137.3	1633.9	174.31	0.000022527	1.16E-05	0.020052
334	1531000	796.56	0.0012554	310180	312110	1364.7	1204.4	2060.3	462.37	3.12E-07	0.0001075	0.083064	0.0051513	49.304	0.020282	508940	539990	2047	1138.8	1639.3	174.14	0.000022478	1.17E-05	0.020115
334.33	1543000	795.45	0.0012571	310850	312780	1366.7	1205.1	2064	460.58	3.18E-07	0.00010707	0.082927	0.0051114	49.735	0.020107	509080	540100	2046.6	1140.3	1644.7	173.98	0.00002243	1.17E-05	0.020179
334.67	1555000	794.34	0.0012589	311510	313470	1368.7	1205.9	2067.7	458.79	3.24E-07	0.00010664	0.08279	0.0050715	50.169	0.019933	509210	540200	2046.2	1141.8	1650.1	173.81	0.000022382	1.17E-05	0.020244
335	1567200	793.22	0.0012607	312170	314150	1370.7	1206.6	2071.5	456.99	3.31E-07	0.00010621	0.082653	0.0050316	50.607	0.01976	509340	540310	2045.8	1143.3	1655.6	173.64	0.000022335	1.17E-05	0.020308
335.33	1579400	792.1	0.0012625	312840	314830	1372.7	1207.3	2075.3	455.2	3.37E-07	0.00010578	0.082516	0.0049918	51.048	0.019589	509470	540410	2045.4	1144.8	1661.2	173.46	0.000022288	1.17E-05	0.020374
335.67	1591600	790.98	0.0012643	313500	315510	1374.7	1208	2079.2	453.4	3.43E-07	0.00010535	0.082379	0.004952	51.493	0.01942	509600	540510	2044.9	1146.3	1666.9	173.29	0.000022241	1.18E-05	0.020439
336	1604000	789.85	0.0012661	314170	316200	1376.6	1208.8	2083.1	451.6	3.50E-07	0.00010493	0.082242	0.0049124	51.943	0.019252	509730	540610	2044.5	1147.8	1672.6	173.12	0.000022194	1.18E-05	0.020506
336.33	1616400	788.72	0.0012679	314830	316880	1378.6	1209.5	2087	449.8	3.56E-07	0.0001045	0.082105	0.0048727	52.395	0.019086	509850	540700	2044.1	1149.3	1678.3	172.94	0.000022148	1.18E-05	0.020572
336.67	1628900	787.58	0.0012697	315500	317570	1380.6	1210.2	2091	448	3.63E-07	0.00010408	0.081968	0.0048331	52.852	0.018921	509980	540800	2043.7	1150.8	1684.1	172.76	0.000022102	1.18E-05	0.02064
337	1641400	786.44	0.0012715	316170	318260	1382.6	1211	2095.1	446.2	3.70E-07	0.00010365	0.081831	0.0047936	53.313	0.018757	510110	540890	2043.3	1152.3	1690	172.58	0.000022057	1.18E-05	0.020707
337.33	1654100	785.3	0.0012734	316840	318950	1384.6	1211.7	2099.2	444.39	3.76E-07	0.00010323	0.081694	0.0047542	53.777	0.018595	510230	540990	2042.8	1153.8	1696	172.4	0.000022012	1.18E-05	0.020775
337.67	1666800	784.15	0.0012753	317510	319640	1386.6	1212.5	2103.3	442.59	3.83E-07	0.00010281	0.081557	0.0047148	54.246	0.018435	510350	541080	2042.4	1155.3	1702	172.22	0.000021967	1.19E-05	0.020844
338	1679500	783	0.0012771	318190	320330	1388.6	1213.2	2107.5	440.78	3.90E-07	0.00010239	0.08142	0.0046754	54.719	0.018275	510480	541170	2042	1156.8	1708.1	172.04	0.000021922	1.19E-05	0.020913
338.33	1692400	781.84	0.001279	318860	321020	1390.6	1214	2111.7	438.97	3.97E-07	0.00010197	0.081283	0.0046362	55.195	0.018117	510600	541260	2041.6	1158.3	1714.3	171.86	0.000021878	1.19E-05	0.020983
338.67	1705300	780.68	0.0012809	319530	321720	1392.6	1214.7	2116	437.16	4.04E-07	0.00010155	0.081146	0.0045969	55.676	0.017961	510720	541350	2041.1	1159.8	1720.5	171.67	0.000021834	1.19E-05	0.021053
339	1718300	779.51	0.0012829	320210	322410	1394.6	1215.5	2120.3	435.34	4.12E-07	0.00010114	0.081009	0.0045578	56.161	0.017806	510840	541430	2040.7	1161.4	1726.8	171.48	0.00002179	1.19E-05	0.021124
339.33	1731400	778.34	0.0012848	320880	323110	1396.6	1216.2	2124.7	433.53	4.19E-07	0.00010072	0.080872	0.0045187	56.65	0.017652	510950	541520	2040.3	1162.9	1733.2	171.29	0.000021747	1.20E-05	0.021195
339.67	1744500	777.17	0.0012867	321560	323800	1398.6	1217	2129.1	431.71	4.26E-07	0.0001003	0.080735	0.0044797	57.144	0.0175	511070	541600	2039.8	1164.4	1739.7	171.1	0.000021704	1.20E-05	0.021267
340	1757700	775.99	0.0012887	322240	324500	1400.6	1217.7	2133.6	429.89	4.34E-07	9.99E-05	0.080597	0.0044407	57.642	0.017349	511190	541680	2039.4	1166	1746.2	170.91	0.000021662	1.20E-05	0.02134
340.33	1771000	774.81	0.0012906	322920	325200	1402.6	1218.5	2138.2	428.07	4.41E-07	9.95E-05	0.08046	0.0044018	58.144	0.017199	511300	541760	2038.9	1167.5	1752.8	170.72	0.000021619	1.20E-05	0.021413
340.67	1784400	773.62	0.0012926	323600	325900	1404.6	1219.3	2142.8	426.25	4.49E-07	9.91E-05	0.080323	0.0043629	58.651	0.01705	511410	541840	2038.5	1169	1759.5	170.53	0.000021577	1.20E-05	0.021486
341	1797900	772.42	0.0012946	324280	326600	1406.7	1220.1	2147.4	424.42	4.57E-07	9.87E-05	0.080186	0.0043241	59.162	0.016903	511530	541920	2038.1	1170.6	1766.3	170.33	0.000021535	1.21E-05	0.02156
341.33	1811400	771.23	0.0012966	324960	327310	1408.7	1220.8	2152.1	422.6	4.65E-07	9.82E-05	0.080048	0.0042854	59.677	0.016757	511640	541990	2037.6	1172.1	1773.2	170.14	0.000021494	1.21E-05	0.021635
341.67	1825000	770.02	0.0012987	325640	328010	1410.7	1221.6	2156.9	420.77	4.73E-07	9.78E-05	0.079911	0.0042468	60.197	0.016612	511750	542060	2037.2	1173.7	1780.1	169.94	0.000021453	1.21E-05	0.021711
342	1838600	768.82	0.0013007	326330	328720	1412.7	1222.4	2161.7	418.94	4.81E-07	9.74E-05	0.079774	0.0042082	60.722	0.016468	511860	542140	2036.7	1175.2	1787.2	169.74	0.000021412	1.21E-05	0.021787
342.33	1852400	767.6	0.0013028	327010	329430	1414.7	1223.2	2166.6	417.11	4.89E-07	9.70E-05	0.079636	0.0041696	61.252	0.016326	511960	542210	2036.3	1176.8	1794.3	169.54	0.000021371	1.22E-05	0.021864
342.67	1866200	766.39	0.0013048	327700	330130	1416.7	1224	2171.6	415.27	4.97E-07	9.66E-05	0.079499	0.0041312	61.786	0.016185	512070	542270	2035.8	1178.3	1801.5	169.33	0.000021331	1.22E-05	0.021941
343	1880100	765.16	0.0013069	328390	330840	1418.7	1224.8	2176.6	413.44	5.06E-07	9.62E-05	0.079362	0.0040928	62.325	0.016045	512170	542340	2035.3	1179.9	1808.9	169.13	0.000021291	1.22E-05	0.022019
343.33	1894100	763.94	0.001309	329070	331550	1420.7	1225.6	2181.7	411.6	5.14E-07	9.58E-05	0.079224	0.0040544	62.869	0.015906	512280	542410	2034.9	1181.5	1816.3	168.92	0.000021251	1.22E-05	0.022098
343.67	1908200	762.7	0.0013111	329760	332270	1422.8	1226.4	2186.9	409.76	5.23E-07	9.54E-05	0.079087	0.0040161	63.418	0.015768	512380	542470	2034.4	1183	1823.8	168.72	0.000021212	1.22E-05	0.022177
344	1922300	761.47	0.0013133	330460	332980	1424.8	1227.2	2192.1	407.91	5.32E-07	9.50E-05	0.078949	0.0039779	63.972	0.015632	512480	542530	2034	1184.6	1831.4	168.51	0.000021173	1.23E-05	0.022258
344.33	1936500	760.22	0.0013154	331150	333690	1426.8	1228	2197.4	406.07	5.41E-07	9.46E-05	0.078811	0.0039398	64.531	0.015497	512580	542590	2033.5	1186.2	1839.2	168.3	0.000021134	1.23E-05	0.022338
344.67	1950800	758.97	0.0013176	331840	334410	1428.8	1228.8	2202.8	404.22	5.50E-07	9.42E-05	0.078674	0.0039017	65.095	0.015362	512680	542650	2033	1187.8	1847	168.09	0.000021095	1.23E-05	0.02242
345	1965200	757.72	0.0013197	332530	335130	1430.9	1229.6	2208.2	402.37	5.59E-07	9.38E-05	0.078536	0.0038637	65.664	0.015229	512780	542700	2032.5	1189.4	1855	167.87	0.000021057	1.23E-05	0.022502
345.33	1979700	756.46	0.0013219	333230	335850	1432.9	1230.4	2213.7	400.52	5.68E-07	9.34E-05	0.078398	0.0038258	66.238	0.015097	512870	542760	2032.1	1190.9	1863	167.66	0.000021019	1.24E-05	0.022586
345.67	1994200	755.19	0.0013242	333930	336570	1434.9	1231.3	2219.3	398.67	5.78E-07	9.30E-05	0.078261	0.0037879	66.818	0.014966	512970	542810	2031.6	1192.5	1871.2	167.44	0.000020981	1.24E-05	0.02267
346	2008800	753.92	0.0013264	334620	337290	1437	1232.1	2225	396.82	5.87E-07	9.26E-05	0.078123	0.0037501	67.403	0.014836	513060	542860	2031.1	1194.1	1879.5	167.23	0.000020944	1.24E-05	0.022754
346.33	2023500	752.65	0.0013286	335320	338010	1439	1232.9	2230.8	394.96	5.97E-07	9.22E-05	0.077985	0.0037124	67.994	0.014707	513150	542910	2030.6	1195.7	1887.9	167.01	0.000020907	1.24E-05	0.02284
346.67	2038300	751.37	0.0013309	336020	338740	1441	1233.8	2236.6	393.1	6.07E-07	9.18E-05	0.077847	0.0036747	68.59	0.014579	513240	542960	2030.1	1197.3	1896.4	166.79	0.00002087	1.24E-05	0.022926
347	2053200	750.08	0.0013332	336730	339460	1443.1	1234.6	2242.5	391.24	6.17E-07	9.14E-05	0.077709	0.0036371	69.191	0.014453	513330	543000	2029.6	1198.9	1905.1	166.56	0.000020833	1.25E-05	0.023014
347.33	2068100	748.78	0.0013355	337430	340190	1445.1	1235.4	2248.6	389.37	6.27E-07	9.10E-05	0.077571	0.0035996	69.799	0.014327	513410	543040	2029.1	1200.6	1913.9	166.34	0.000020797	1.25E-05	0.023102
347.67	2083200	747.48	0.0013378	338130	340920	1447.1	1236.3	2254.7	387.5	6.37E-07	9.06E-05	0.077433	0.0035621	70.412	0.014202	513500	543080	2028.6	1202.2	1922.8	166.12	0.000020761	1.25E-05	0.023191
348	2098300	746.18	0.0013402	338840	341650	1449.2	1237.1	2260.9	385.63	6.48E-07	9.02E-05	0.077295	0.0035247	71.031	0.014078	513580	543120	2028.1	1203.8	1931.9	165.89	0.000020725	1.25E-05	0.023281
348.33	2113500	744.86	0.0013425	339550	342380	1451.2	1238	2267.2	383.76	6.58E-07	8.98E-05	0.077157	0.0034874	71.656	0.013956	513660	543160	2027.6	1205.4	1941.1	165.66	0.000020689	1.26E-05	0.023371
348.67	2128700	743.55	0.0013449	340250	343120	1453.3	1238.9	2273.5	381.89	6.69E-07	8.94E-05	0.077019	0.0034502	72.287	0.013834	513740	543190	2027.1	1207	1950.4	165.43	0.000020654	1.26E-05	0.023463
349	2144100	742.22	0.0013473	340960	343850	1455.3	1239.7	2280	380.01	6.80E-07	8.90E-05	0.076881	0.003413	72.924	0.013713	513820	543220	2026.6	1208.7	1959.9	165.2	0.000020619	1.26E-05	0.023556
349.33	2159500	740.89	0.0013497	341670	344590	1457.4	1240.6	2286.6	378.13	6.91E-07	8.86E-05	0.076743	0.0033759	73.567	0.013593	513900	543250	2026.1	1210.3	1969.6	164.96	0.000020584	1.26E-05	0.02365
349.67	2175100	739.55	0.0013522	342390	345330	1459.4	1241.5	2293.3	376.25	7.02E-07	8.82E-05	0.076604	0.0033389	74.217	0.013474	513980	543280	2025.5	1212	1979.4	164.73	0.00002055	1.27E-05	0.023744
350	2190700	738.21	0.0013546	343100	346070	1461.5	1242.4	2300.1	374.37	7.13E-07	8.78E-05	0.076466	0.003302	74.872	0.013356	514050	543310	2025	1213.6	1989.3	164.49	0.000020515	1.27E-05	0.02384
350.33	2206400	736.86	0.0013571	343820	346810	1463.5	1243.2	2307	372.48	7.25E-07	8.74E-05	0.076328	0.0032651	75.535	0.013239	514120	543330	2024.5	1215.3	1999.5	164.25	0.000020481	1.27E-05	0.023937
350.67	2222100	735.5	0.0013596	344530	347550	1465.6	1244.1	2314	370.59	7.37E-07	8.71E-05	0.076189	0.0032283	76.204	0.013123	514190	543350	2024	1216.9	2009.8	164.01	0.000020447	1.27E-05	0.024035
351	2238000	734.13	0.0013622	345250	348300	1467.7	1245	2321.2	368.7	7.49E-07	8.67E-05	0.076051	0.0031916	76.879	0.013007	514260	543370	2023.4	1218.6	2020.3	163.77	0.000020414	1.28E-05	0.024134
351.33	2254000	732.76	0.0013647	345970	349050	1469.7	1245.9	2328.5	366.8	7.61E-07	8.63E-05	0.075912	0.0031549	77.561	0.012893	514330	543390	2022.9	1220.2	2030.9	163.53	0.00002038	1.28E-05	0.024234
351.67	2270000	731.38	0.0013673	346690	349790	1471.8	1246.8	2335.8	364.9	7.73E-07	8.59E-05	0.075773	0.0031184	78.25	0.012779	514390	543400	2022.3	1221.9	2041.7	163.28	0.000020347	1.28E-05	0.024335
352	2286100	729.99	0.0013699	347410	350540	1473.9	1247.7	2343.3	363	7.86E-07	8.55E-05	0.075635	0.0030819	78.946	0.012667	514450	543410	2021.8	1223.6	2052.8	163.04	0.000020314	1.28E-05	0.024437
352.33	2302300	728.6	0.0013725	348140	351300	1475.9	1248.6	2351	361.1	7.99E-07	8.51E-05	0.075496	0.0030455	79.649	0.012555	514510	543420	2021.2	1225.3	2064	162.79	0.000020282	1.29E-05	0.024541
352.67	2318600	727.2	0.0013751	348860	352050	1478	1249.6	2358.8	359.19	8.12E-07	8.47E-05	0.075357	0.0030091	80.36	0.012444	514570	543430	2020.7	1227	2075.4	162.54	0.000020249	1.29E-05	0.024645
353	2335000	725.79	0.0013778	349590	352810	1480.1	1250.5	2366.7	357.28	8.25E-07	8.43E-05	0.075219	0.0029729	81.077	0.012334	514630	543430	2020.1	1228.6	2087.1	162.28	0.000020217	1.29E-05	0.024751
353.33	2351500	724.37	0.0013805	350320	353560	1482.2	1251.4	2374.7	355.37	8.38E-07	8.39E-05	0.07508	0.0029367	81.802	0.012225	514690	543430	2019.5	1230.3	2098.9	162.03	0.000020185	1.29E-05	0.024859
353.67	2368000	722.95	0.0013832	351050	354320	1484.3	1252.4	2382.9	353.45	0.000000852	8.36E-05	0.074941	0.0029006	82.535	0.012116	514740	543430	2019	1232	2111	161.77	0.000020153	1.30E-05	0.024967
354	2384700	721.52	0.001386	351780	355090	1486.3	1253.3	2391.3	351.54	8.66E-07	8.32E-05	0.074802	0.0028646	83.275	0.012008	514790	543430	2018.4	1233.7	2123.3	161.52	0.000020121	1.30E-05	0.025077
354.33	2401400	720.07	0.0013887	352510	355850	1488.4	1254.2	2399.8	349.61	0.00000088	8.28E-05	0.074663	0.0028287	84.023	0.011902	514840	543420	2017.8	1235.5	2135.8	161.26	0.00002009	1.30E-05	0.025188
354.67	2418300	718.63	0.0013915	353250	356610	1490.5	1255.2	2408.4	347.69	8.94E-07	8.24E-05	0.074524	0.0027928	84.779	0.011795	514890	543410	2017.2	1237.2	2148.6	160.99	0.000020059	1.31E-05	0.025301
355	2435200	717.17	0.0013944	353990	357380	1492.6	1256.2	2417.3	345.76	0.000000909	8.20E-05	0.074385	0.002757	85.542	0.01169	514930	543400	2016.6	1238.9	2161.6	160.73	0.000020028	1.31E-05	0.025415
355.33	2452200	715.7	0.0013972	354730	358150	1494.7	1257.1	2426.3	343.83	9.24E-07	8.16E-05	0.074246	0.0027214	86.314	0.011586	514970	543380	2016	1240.6	2174.8	160.47	0.000019997	1.31E-05	0.02553
355.67	2469300	714.23	0.0014001	355470	358920	1496.8	1258.1	2435.4	341.89	9.39E-07	8.12E-05	0.074106	0.0026858	87.095	0.011482	515010	543360	2015.4	1242.4	2188.4	160.2	0.000019966	1.31E-05	0.025647
356	2486500	712.74	0.001403	356210	359700	1498.9	1259.1	2444.8	339.96	9.54E-07	8.09E-05	0.073967	0.0026502	87.884	0.011379	515050	543340	2014.8	1244.1	2202.2	159.93	0.000019936	1.32E-05	0.025766
356.33	2503800	711.25	0.001406	356950	360470	1501	1260.1	2454.3	338.01	9.70E-07	8.05E-05	0.073828	0.0026148	88.681	0.011276	515080	543320	2014.2	1245.9	2216.3	159.66	0.000019906	1.32E-05	0.025886
356.67	2521100	709.75	0.0014089	357700	361250	1503.2	1261	2464.1	336.07	9.86E-07	8.01E-05	0.073689	0.0025795	89.487	0.011175	515120	543290	2013.5	1247.6	2230.7	159.39	0.000019876	1.32E-05	0.026008
357	2538600	708.24	0.0014119	358450	362030	1505.3	1262	2474	334.12	1.00E-06	7.97E-05	0.073549	0.0025442	90.302	0.011074	515150	543260	2012.9	1249.4	2245.3	159.11	0.000019846	1.33E-05	0.026131
357.33	2556200	706.72	0.001415	359200	362810	1507.4	1263	2484.1	332.17	0.000001019	7.93E-05	0.07341	0.0025091	91.127	0.010974	515180	543230	2012.3	1251.1	2260.3	158.84	0.000019816	1.33E-05	0.026256
357.67	2573800	705.19	0.0014181	359950	363600	1509.5	1264.1	2494.5	330.21	1.04E-06	7.89E-05	0.07327	0.002474	91.96	0.010874	515200	543190	2011.6	1252.9	2275.7	158.56	0.000019787	1.33E-05	0.026383
358	2591600	703.65	0.0014212	360700	364380	1511.6	1265.1	2505.1	328.25	1.05E-06	7.85E-05	0.073131	0.002439	92.803	0.010776	515220	543150	2011	1254.7	2291.3	158.28	0.000019757	1.34E-05	0.026511
358.33	2609400	702.1	0.0014243	361460	365170	1513.8	1266.1	2515.9	326.29	1.07E-06	7.82E-05	0.072992	0.0024041	93.655	0.010677	515240	543110	2010.3	1256.5	2307.3	158	0.000019728	1.34E-05	0.026642
358.67	2627300	700.54	0.0014275	362220	365970	1515.9	1267.1	2526.9	324.32	1.09E-06	7.78E-05	0.072852	0.0023693	94.518	0.01058	515260	543060	2009.7	1258.3	2323.7	157.71	0.000019699	1.34E-05	0.026774
359	2645400	698.97	0.0014307	362970	366760	1518.1	1268.2	2538.2	322.35	1.11E-06	7.74E-05	0.072713	0.0023346	95.39	0.010483	515280	543010	2009	1260.1	2340.4	157.43	0.00001967	1.35E-05	0.026908
359.33	2663500	697.39	0.0014339	363740	367560	1520.2	1269.2	2549.7	320.37	1.13E-06	7.70E-05	0.072573	0.0023	96.272	0.010387	515290	542960	2008.3	1261.9	2357.5	157.14	0.000019641	1.35E-05	0.027044
359.67	2681700	695.8	0.0014372	364500	368360	1522.3	1270.3	2561.5	318.39	1.14E-06	7.66E-05	0.072434	0.0022655	97.165	0.010292	515300	542900	2007.6	1263.7	2375.1	156.85	0.000019612	1.35E-05	0.027182
360	2700000	694.2	0.0014405	365270	369160	1524.5	1271.3	2573.6	316.4	1.16E-06	7.62E-05	0.072294	0.002231	98.069	0.010197	515300	542840	2006.9	1265.5	2393	156.55	0.000019584	1.36E-05	0.027323
360.33	2718500	692.59	0.0014439	366040	369960	1526.7	1272.4	2586	314.42	1.18E-06	7.59E-05	0.072155	0.0021967	98.983	0.010103	515310	542770	2006.3	1267.4	2411.4	156.26	0.000019555	1.36E-05	0.027465
360.67	2737000	690.96	0.0014473	366810	370770	1528.8	1273.5	2598.6	312.42	1.20E-06	7.55E-05	0.072015	0.0021625	99.908	0.010009	515310	542700	2005.5	1269.2	2430.2	155.96	0.000019527	1.36E-05	0.02761
361	2755600	689.32	0.0014507	367580	371580	1531	1274.6	2611.6	310.42	0.000001224	7.51E-05	0.071876	0.0021283	100.84	0.0099163	515310	542630	2004.8	1271.1	2449.4	155.66	0.000019499	1.37E-05	0.027756
361.33	2774300	687.68	0.0014542	368360	372390	1533.2	1275.7	2624.9	308.42	0.000001245	7.47E-05	0.071736	0.0020943	101.79	0.0098239	515300	542550	2004.1	1272.9	2469.2	155.36	0.000019471	1.37E-05	0.027905
361.67	2793100	686.02	0.0014577	369130	373200	1535.3	1276.8	2638.5	306.42	1.27E-06	7.43E-05	0.071597	0.0020603	102.75	0.0097322	515290	542470	2003.4	1274.8	2489.5	155.06	0.000019443	1.37E-05	0.028057
362	2812000	684.34	0.0014613	369910	374020	1537.5	1277.9	2652.4	304.4	1.29E-06	7.39E-05	0.071458	0.0020265	103.72	0.009641	515280	542390	2002.6	1276.6	2510.3	154.76	0.000019415	1.38E-05	0.028211
362.33	2831000	682.66	0.0014649	370700	374840	1539.7	1279	2666.7	302.39	1.31E-06	7.36E-05	0.071318	0.0019928	104.71	0.0095504	515260	542300	2001.9	1278.5	2531.6	154.45	0.000019387	1.38E-05	0.028367
362.67	2850100	680.96	0.0014685	371480	375670	1541.9	1280.2	2681.4	300.37	1.33E-06	7.32E-05	0.071179	0.0019591	105.7	0.0094604	515240	542210	2001.1	1280.4	2553.5	154.14	0.000019359	1.39E-05	0.028526
363	2869300	679.25	0.0014722	372270	376490	1544.1	1281.3	2696.5	298.34	1.36E-06	7.28E-05	0.07104	0.0019256	106.71	0.0093709	515220	542110	2000.4	1282.3	2576	153.83	0.000019331	1.39E-05	0.028688
363.33	2888600	677.52	0.001476	373060	377320	1546.3	1282.4	2712	296.31	1.38E-06	7.24E-05	0.070901	0.0018922	107.74	0.0092819	515190	542010	1999.6	1284.2	2599.1	153.51	0.000019304	1.39E-05	0.028853
363.67	2908000	675.78	0.0014798	373850	378160	1548.5	1283.6	2727.9	294.27	1.41E-06	7.20E-05	0.070762	0.0018589	108.77	0.0091935	515160	541900	1998.8	1286.1	2622.9	153.2	0.000019276	1.40E-05	0.02902
364	2927500	674.03	0.0014836	374650	378990	1550.8	1284.8	2744.2	292.23	1.43E-06	7.16E-05	0.070623	0.0018257	109.82	0.0091057	515130	541790	1998	1288.1	2647.3	152.88	0.000019248	1.40E-05	0.02919
364.33	2947100	672.26	0.0014875	375450	379830	1553	1286	2761.1	290.18	1.46E-06	7.12E-05	0.070484	0.0017926	110.89	0.0090183	515090	541670	1997.2	1290	2672.4	152.56	0.000019221	1.40E-05	0.029364
364.67	2966800	670.48	0.0014915	376250	380680	1555.2	1287.2	2778.4	288.13	1.48E-06	7.08E-05	0.070346	0.0017596	111.96	0.0089315	515050	541550	1996.4	1292	2698.3	152.23	0.000019193	1.41E-05	0.02954
365	2986700	668.68	0.0014955	377060	381520	1557.5	1288.4	2796.2	286.07	1.51E-06	7.05E-05	0.070208	0.0017267	113.06	0.0088451	515000	541420	1995.5	1293.9	2724.9	151.91	0.000019165	1.41E-05	0.02972
365.33	3006600	666.87	0.0014996	377860	382370	1559.7	1289.6	2814.5	284	1.54E-06	7.01E-05	0.070069	0.0016939	114.16	0.0087593	514950	541290	1994.7	1295.9	2752.4	151.58	0.000019138	1.42E-05	0.029903
365.67	3026600	665.04	0.0015037	378680	383230	1562	1290.8	2833.4	281.93	1.56E-06	6.97E-05	0.069931	0.0016613	115.29	0.0086739	514900	541150	1993.8	1297.9	2780.7	151.25	0.00001911	1.42E-05	0.030089
366	3046700	663.19	0.0015079	379490	384080	1564.2	1292	2852.9	279.85	1.59E-06	6.93E-05	0.069794	0.0016287	116.43	0.008589	514840	541010	1993	1299.9	2809.9	150.91	0.000019082	1.43E-05	0.030279
366.33	3067000	661.33	0.0015121	380310	384940	1566.5	1293.3	2873	277.77	0.000001622	6.89E-05	0.069656	0.0015963	117.58	0.0085046	514780	540860	1992.1	1301.9	2840	150.58	0.000019054	1.43E-05	0.030473
366.67	3087300	659.44	0.0015164	381130	385810	1568.8	1294.6	2893.7	275.68	1.65E-06	6.85E-05	0.069519	0.001564	118.76	0.0084206	514710	540710	1991.2	1303.9	2871.1	150.24	0.000019026	1.43E-05	0.03067
367	3107800	657.55	0.0015208	381950	386680	1571	1295.8	2915.1	273.58	1.68E-06	6.81E-05	0.069382	0.0015318	119.95	0.0083371	514640	540550	1990.3	1305.9	2903.2	149.9	0.000018998	1.44E-05	0.030872
367.33	3128300	655.63	0.0015253	382780	387550	1573.3	1297.1	2937.2	271.48	1.71E-06	6.77E-05	0.069246	0.0014998	121.15	0.0082539	514560	540380	1989.4	1308	2936.4	149.56	0.00001897	1.44E-05	0.031077
367.67	3149000	653.69	0.0015298	383610	388430	1575.6	1298.4	2960.1	269.37	1.75E-06	6.73E-05	0.06911	0.0014678	122.38	0.0081712	514480	540210	1988.5	1310	2970.8	149.21	0.000018942	1.45E-05	0.031287
368	3169800	651.74	0.0015344	384450	389310	1577.9	1299.8	2983.8	267.25	1.78E-06	6.69E-05	0.068974	0.001436	123.63	0.008089	514390	540030	1987.5	1312.1	3006.4	148.86	0.000018913	1.45E-05	0.031501
368.33	3190600	649.76	0.001539	385290	390200	1580.3	1301.1	3008.3	265.13	1.82E-06	6.65E-05	0.068839	0.0014044	124.89	0.0080071	514300	539840	1986.6	1314.1	3043.2	148.51	0.000018885	1.46E-05	0.03172
368.67	3211600	647.77	0.0015438	386130	391090	1582.6	1302.4	3033.7	262.99	1.85E-06	6.62E-05	0.068705	0.0013728	126.17	0.0079256	514200	539650	1985.6	1316.2	3081.3	148.16	0.000018856	1.46E-05	0.031943
369	3232700	645.75	0.0015486	386980	391980	1584.9	1303.8	3060	260.85	1.89E-06	6.58E-05	0.068571	0.0013414	127.48	0.0078445	514090	539450	1984.6	1318.3	3120.9	147.8	0.000018827	1.47E-05	0.032172
369.33	3254000	643.71	0.0015535	387830	392880	1587.3	1305.2	3087.3	258.71	1.92E-06	6.54E-05	0.068437	0.0013101	128.8	0.0077637	513980	539250	1983.6	1320.5	3162	147.44	0.000018797	1.47E-05	0.032405
369.67	3275300	641.65	0.0015585	388680	393790	1589.6	1306.6	3115.7	256.55	0.000001962	6.50E-05	0.068305	0.0012789	130.15	0.0076833	513870	539030	1982.5	1322.6	3204.7	147.08	0.000018768	1.48E-05	0.032644
370	3296700	639.56	0.0015636	389550	394700	1592	1308	3145.2	254.38	2.00E-06	6.46E-05	0.068173	0.0012479	131.52	0.0076032	513740	538810	1981.5	1324.7	3249.1	146.71	0.000018738	1.48E-05	0.032888
